File: packages/dopes/dopes-2025.1.0.tar.gz/dopes-2025.1.0/examples/data_analysis/raman_silicon/data/514nm_1%_15s/W3L150_4_top.txt
692.206	0.666667
690.885	0.666667
689.564	-1
688.241	-2.33333
686.917	-0.666667
685.596	-1.66667
684.272	-0.666667
682.948	1
681.624	-0.333333
680.299	-0.666667
678.975	0.333333
677.65	1
676.323	1.66667
674.998	0.333333
673.67	-0.666667
672.344	-2.33333
671.017	0.666667
669.689	0
668.362	2.66667
667.034	1
665.705	1.33333
664.376	-0.333333
663.045	-0.666667
661.716	0.333333
660.387	-2
659.055	-0.333333
657.725	0.333333
656.393	-2.33333
655.063	-0.333333
653.73	1.33333
652.398	1.33333
651.065	-1
649.732	1.66667
648.399	-2.66667
647.065	2
645.729	-1.66667
644.396	-0.666667
643.062	-1
641.725	-1.33333
640.389	-1
639.054	1.33333
637.717	1.66667
636.38	2
635.043	0.333333
633.705	0.333333
632.368	0
631.03	-1.33333
629.689	-1
628.351	1.33333
627.011	-0.666667
625.672	0.333333
624.331	1
622.99	1.33333
621.651	2.66667
620.309	1
618.967	1
617.625	2
616.281	-0.666667
614.939	3.66667
613.596	2
612.251	2
610.908	1.33333
609.563	1.33333
608.22	1.66667
606.874	-0.333333
605.528	1.66667
604.182	1
602.836	0
601.49	1
600.143	0.666667
598.794	-2
597.447	0.666667
596.1	1.33333
594.75	2.33333
593.403	-3.33333
592.053	1
590.703	-1
589.353	-0.666667
588.002	-1
586.651	-1
585.3	0.666667
583.949	-1.33333
582.598	0.666667
581.244	1
579.893	-0.666667
578.539	1.66667
577.187	-1.33333
575.832	0.666667
574.478	0.666667
573.123	2.33333
571.768	-2.66667
570.413	0
569.057	3.66667
567.702	0.666667
566.346	1
564.988	0.666667
563.632	1
562.273	0.333333
560.916	1.33333
559.558	2.33333
558.198	-1.33333
556.839	1.66667
555.48	3.33333
554.12	3
552.76	1
551.4	2.33333
550.039	4
548.677	3.66667
547.316	5.33333
545.953	6
544.592	6.66667
543.229	6
541.865	4.33333
540.501	2.66667
539.137	9.33333
537.773	7
536.408	15
535.044	16.3333
533.679	16.3333
532.312	21.3333
530.946	25.6667
529.579	28.3333
528.213	46.3333
526.845	63.6667
525.477	96.6667
524.111	190.667
522.742	379.667
521.373	905.333
520.002	1359
518.633	831.667
517.263	344
515.894	171
514.522	85.6667
513.152	59
511.779	40.3333
510.407	30
509.034	25.3333
507.663	16
506.29	11.3333
504.917	14.6667
503.543	10
502.167	9
500.793	5.66667
499.419	7
498.043	4.66667
496.668	6.33333
495.291	4.66667
493.916	5
492.539	6
491.161	8
489.783	3.33333
488.405	4.33333
487.027	2.33333
485.649	4
484.268	2
482.889	1.33333
481.51	2
480.129	2
478.75	-0.666667
477.368	2
475.986	2.33333
474.604	4
473.221	0
471.839	0.666667
470.456	1.66667
469.073	0.333333
467.69	1.33333
466.307	2
464.921	-0.666667
463.537	1.66667
462.151	-0.333333
460.767	-2.33333
459.38	1
457.993	0
456.606	-1.33333
455.219	2
453.832	1
452.444	1.33333
451.056	-1
449.668	0.333333
448.278	-0.333333
446.89	1.66667
445.499	1.33333
444.11	1.66667
442.719	0.666667
441.327	0.333333
439.936	1.33333
438.544	0.666667
437.152	1.33333
435.76	-0.666667
434.367	1.33333
432.975	1.33333
431.579	1.66667
430.186	-1.33333
428.791	-0.333333
427.398	3.33333
426.002	2.66667
424.606	1
423.211	0.333333
421.815	1.33333
420.418	3.33333
419.021	1.33333
417.624	4.33333
416.225	2
414.827	0.666667
413.43	0.333333
412.029	-1
410.631	1
409.231	2
407.83	0
406.429	1.66667
405.03	1.66667
403.629	-1.66667
402.227	0.666667
400.825	-0.666667
399.421	2.66667
398.019	0.333333
396.617	-2
395.212	-1.33333
393.809	-0.666667
392.404	0
391	-0.333333
389.595	0.666667
388.189	0.666667
386.783	2
385.377	1.66667
383.97	-0.666667
382.563	-1.66667
381.157	2.66667
379.747	5.33333
378.34	-0.666667
376.932	1
375.522	0
374.112	4.66667
372.704	2
371.294	1.66667
369.883	2.66667
368.472	0.666667
367.061	2
365.649	0.666667
364.238	2.33333
362.826	3.33333
361.411	0.333333
359.999	2.33333
358.585	0.666667
357.172	1.66667
355.757	3
354.342	1.66667
352.928	1.66667
351.513	3.33333
350.097	1.33333
348.68	1.33333
347.264	0.666667
345.845	1.33333
344.429	0
343.012	3
341.948	2.66667