File: packages/dopes/dopes-2025.1.0.tar.gz/dopes-2025.1.0/examples/data_analysis/raman_silicon/data/514nm_1%_15s/W3L150_22_bottom.txt
692.206	2.33333
690.885	0
689.564	3.66667
688.241	3
686.917	3.66667
685.596	3.66667
684.272	1.33333
682.948	6
681.624	2.66667
680.299	4.66667
678.975	1
677.65	3.33333
676.323	5
674.998	5.33333
673.67	2.33333
672.344	2
671.017	4
669.689	6
668.362	3.66667
667.034	7.66667
665.705	1
664.376	4.33333
663.045	5
661.716	4.33333
660.387	4.66667
659.055	4.33333
657.725	6
656.393	3
655.063	5.33333
653.73	3
652.398	1
651.065	4.33333
649.732	2.66667
648.399	3.33333
647.065	6
645.729	6.33333
644.396	3.66667
643.062	1
641.725	5.33333
640.389	3.33333
639.054	4
637.717	3
636.38	4.33333
635.043	3.66667
633.705	2
632.368	6.66667
631.03	3.66667
629.689	2.33333
628.351	4
627.011	4.33333
625.672	5.33333
624.331	3.66667
622.99	6.66667
621.651	8.33333
620.309	6
618.967	4.33333
617.625	8.33333
616.281	6.33333
614.939	5
613.596	8
612.251	3.66667
610.908	6.66667
609.563	5.66667
608.22	4
606.874	2
605.528	5.66667
604.182	4.33333
602.836	3
601.49	3.66667
600.143	5.66667
598.794	3
597.447	7
596.1	3.66667
594.75	4.66667
593.403	6.33333
592.053	4
590.703	5.66667
589.353	5.33333
588.002	2.66667
586.651	3.33333
585.3	2.66667
583.949	3.66667
582.598	2
581.244	1.33333
579.893	5.66667
578.539	4.66667
577.187	3.33333
575.832	2.66667
574.478	3
573.123	5
571.768	2.66667
570.413	5
569.057	2.66667
567.702	7.66667
566.346	0.666667
564.988	4
563.632	6
562.273	7
560.916	3
559.558	4
558.198	5
556.839	8.66667
555.48	6
554.12	5
552.76	5.33333
551.4	7
550.039	8.33333
548.677	6.33333
547.316	9.33333
545.953	8.66667
544.592	11.6667
543.229	11.6667
541.865	14.6667
540.501	12.3333
539.137	14.6667
537.773	18.3333
536.408	15.6667
535.044	20
533.679	20.6667
532.312	28.3333
530.946	29.3333
529.579	35.6667
528.213	48
526.845	68
525.477	92.3333
524.111	155.667
522.742	319
521.373	699
520.002	1070
518.633	957
517.263	746
515.894	815.333
514.522	692
513.152	368.333
511.779	172.667
510.407	106.667
509.034	71.3333
507.663	51.3333
506.29	29.3333
504.917	28
503.543	27
502.167	20
500.793	18
499.419	16
498.043	11.3333
496.668	14.6667
495.291	13
493.916	11
492.539	10
491.161	5
489.783	9
488.405	9.33333
487.027	8.66667
485.649	8
484.268	7.66667
482.889	9
481.51	8.66667
480.129	6.66667
478.75	6.66667
477.368	5.66667
475.986	6.33333
474.604	6.66667
473.221	5.66667
471.839	5.33333
470.456	8.33333
469.073	5.66667
467.69	6.33333
466.307	4.33333
464.921	4.66667
463.537	6.33333
462.151	4.66667
460.767	5
459.38	5.33333
457.993	1.33333
456.606	2.66667
455.219	5
453.832	1.66667
452.444	3.66667
451.056	4.33333
449.668	2.66667
448.278	4.66667
446.89	4.66667
445.499	4
444.11	5.66667
442.719	1.66667
441.327	5.66667
439.936	6
438.544	4.66667
437.152	5.33333
435.76	7
434.367	4
432.975	7.33333
431.579	6
430.186	5.66667
428.791	6
427.398	6
426.002	6.66667
424.606	2.33333
423.211	5
421.815	-0.666667
420.418	7.66667
419.021	4.33333
417.624	5.66667
416.225	5.66667
414.827	5.33333
413.43	7.66667
412.029	4.33333
410.631	6.33333
409.231	6.66667
407.83	4
406.429	5
405.03	8
403.629	5.33333
402.227	3.33333
400.825	5.66667
399.421	3
398.019	3.66667
396.617	5
395.212	4.33333
393.809	2.33333
392.404	7.33333
391	2
389.595	6.33333
388.189	5.33333
386.783	5
385.377	5.66667
383.97	6.66667
382.563	3
381.157	5
379.747	5.66667
378.34	5.66667
376.932	3.33333
375.522	4
374.112	6.33333
372.704	5.33333
371.294	8.33333
369.883	5.33333
368.472	4.66667
367.061	6.33333
365.649	6.33333
364.238	4.33333
362.826	4.33333
361.411	4
359.999	4
358.585	7.33333
357.172	6
355.757	5.66667
354.342	9.33333
352.928	7
351.513	3.66667
350.097	5
348.68	7.33333
347.264	8.66667
345.845	4.66667
344.429	9
343.012	5.33333
341.948	7