File: packages/dopes/dopes-2025.1.0.tar.gz/dopes-2025.1.0/examples/data_analysis/raman_silicon/data/514nm_1%_15s/W3L150_16_bottom.txt
692.206	2.66667
690.885	5.33333
689.564	0
688.241	2.66667
686.917	4.66667
685.596	4.66667
684.272	3.33333
682.948	2.66667
681.624	3.66667
680.299	4
678.975	4.33333
677.65	1.33333
676.323	4
674.998	3.33333
673.67	3.66667
672.344	1.66667
671.017	3.33333
669.689	5.33333
668.362	4.66667
667.034	3.66667
665.705	3.66667
664.376	4.33333
663.045	0.666667
661.716	6.66667
660.387	4
659.055	1.66667
657.725	5
656.393	3.66667
655.063	5
653.73	5.66667
652.398	2
651.065	5.66667
649.732	4.66667
648.399	1
647.065	4.33333
645.729	3.66667
644.396	2.33333
643.062	3.33333
641.725	4.66667
640.389	5
639.054	3
637.717	5
636.38	4.33333
635.043	3.66667
633.705	4
632.368	2
631.03	1.33333
629.689	2.66667
628.351	3.33333
627.011	4.33333
625.672	2
624.331	6.33333
622.99	2.66667
621.651	5.66667
620.309	6.33333
618.967	5.33333
617.625	7
616.281	5.33333
614.939	5.33333
613.596	7.66667
612.251	6
610.908	3.33333
609.563	4
608.22	2.66667
606.874	5
605.528	2.33333
604.182	4
602.836	4.66667
601.49	6.66667
600.143	5
598.794	4
597.447	4
596.1	3.33333
594.75	3
593.403	4.33333
592.053	3.66667
590.703	3.66667
589.353	4.33333
588.002	2
586.651	4
585.3	3.66667
583.949	6.66667
582.598	1.66667
581.244	4
579.893	3.33333
578.539	3.33333
577.187	1.33333
575.832	2
574.478	4
573.123	5.66667
571.768	2.66667
570.413	1
569.057	5.66667
567.702	5.33333
566.346	5.33333
564.988	7
563.632	4
562.273	5
560.916	6
559.558	3.33333
558.198	5
556.839	6.66667
555.48	6.33333
554.12	8
552.76	3.66667
551.4	4.33333
550.039	6
548.677	7.33333
547.316	5.66667
545.953	9
544.592	11.6667
543.229	10
541.865	15
540.501	13.3333
539.137	14
537.773	16
536.408	16
535.044	22
533.679	21.6667
532.312	23.3333
530.946	29
529.579	32.6667
528.213	42.3333
526.845	61.6667
525.477	87.6667
524.111	162.667
522.742	318.667
521.373	747.667
520.002	1075.67
518.633	881.667
517.263	881.333
515.894	590
514.522	269
513.152	144.333
511.779	87.3333
510.407	60.6667
509.034	38.3333
507.663	34
506.29	24.3333
504.917	17
503.543	21.6667
502.167	16.3333
500.793	12
499.419	14.3333
498.043	11.6667
496.668	11.3333
495.291	8.33333
493.916	10.3333
492.539	8
491.161	8.33333
489.783	9.66667
488.405	7
487.027	8.66667
485.649	7
484.268	8.33333
482.889	6
481.51	5.66667
480.129	7.33333
478.75	5
477.368	6.66667
475.986	6.33333
474.604	6.33333
473.221	7.66667
471.839	3
470.456	2.33333
469.073	1
467.69	6.33333
466.307	5.33333
464.921	2
463.537	2.33333
462.151	4
460.767	3.66667
459.38	5
457.993	4
456.606	2.33333
455.219	1.33333
453.832	2
452.444	3
451.056	4.66667
449.668	3.33333
448.278	6
446.89	8.33333
445.499	7
444.11	4.33333
442.719	5.33333
441.327	3.66667
439.936	7.33333
438.544	6
437.152	5
435.76	5.33333
434.367	2.33333
432.975	8
431.579	1
430.186	5
428.791	6.33333
427.398	6.33333
426.002	8
424.606	7
423.211	3
421.815	3.33333
420.418	7.66667
419.021	3.33333
417.624	4.33333
416.225	3.66667
414.827	4
413.43	6.66667
412.029	5.33333
410.631	2.66667
409.231	4.33333
407.83	3.66667
406.429	4.33333
405.03	2
403.629	3.66667
402.227	6
400.825	1.66667
399.421	1
398.019	5.33333
396.617	7
395.212	6.66667
393.809	1.66667
392.404	6
391	3.66667
389.595	3.33333
388.189	5.66667
386.783	3.66667
385.377	5
383.97	7
382.563	2.66667
381.157	5.66667
379.747	5
378.34	3.33333
376.932	4.33333
375.522	4
374.112	4.33333
372.704	3.66667
371.294	3.33333
369.883	6.66667
368.472	5.66667
367.061	5.66667
365.649	4.66667
364.238	4.66667
362.826	4.33333
361.411	5.66667
359.999	4.33333
358.585	3.66667
357.172	3.33333
355.757	3.33333
354.342	3
352.928	5.66667
351.513	3.66667
350.097	6
348.68	4.33333
347.264	4
345.845	4
344.429	6
343.012	4.66667
341.948	5.33333