File: packages/dopes/dopes-2025.1.0.tar.gz/dopes-2025.1.0/examples/data_analysis/raman_silicon/data/514nm_1%_15s/W3L150_15_bottom.txt
692.206	-1
690.885	-0.666667
689.564	1.66667
688.241	0.666667
686.917	0.333333
685.596	1.66667
684.272	0.666667
682.948	2
681.624	2
680.299	2.66667
678.975	0.666667
677.65	2.33333
676.323	3
674.998	3
673.67	3
672.344	3.33333
671.017	2
669.689	4.33333
668.362	3.33333
667.034	3
665.705	5
664.376	4
663.045	2.33333
661.716	4.33333
660.387	4.33333
659.055	1.66667
657.725	2.33333
656.393	3
655.063	2
653.73	2
652.398	3.66667
651.065	5
649.732	2.33333
648.399	2.33333
647.065	3
645.729	4
644.396	1.33333
643.062	1.66667
641.725	2.33333
640.389	2.33333
639.054	2
637.717	1.33333
636.38	4.66667
635.043	3
633.705	4.33333
632.368	5.33333
631.03	3.66667
629.689	2
628.351	-1.66667
627.011	3
625.672	2
624.331	5.66667
622.99	3
621.651	3
620.309	3.33333
618.967	5
617.625	6
616.281	6
614.939	2.33333
613.596	2.66667
612.251	4.66667
610.908	3.33333
609.563	2.33333
608.22	4
606.874	2.33333
605.528	2.33333
604.182	1.33333
602.836	2.66667
601.49	2.33333
600.143	0
598.794	1.66667
597.447	0.333333
596.1	1
594.75	1.33333
593.403	2.33333
592.053	3.33333
590.703	3
589.353	2
588.002	1.66667
586.651	2
585.3	1.33333
583.949	-0.666667
582.598	2
581.244	2.33333
579.893	3
578.539	-0.333333
577.187	5.33333
575.832	1
574.478	3
573.123	2
571.768	0.666667
570.413	0.666667
569.057	4.33333
567.702	3.66667
566.346	1.66667
564.988	2
563.632	2.66667
562.273	1.66667
560.916	3
559.558	2
558.198	6
556.839	2.66667
555.48	5.33333
554.12	4.66667
552.76	7
551.4	3.33333
550.039	7.66667
548.677	10.6667
547.316	10
545.953	8
544.592	8.33333
543.229	9.33333
541.865	9
540.501	7.33333
539.137	11
537.773	10.3333
536.408	17
535.044	13
533.679	20
532.312	23
530.946	28.3333
529.579	33.3333
528.213	44.3333
526.845	48.3333
525.477	78
524.111	123
522.742	248
521.373	547.667
520.002	893
518.633	986
517.263	961
515.894	515
514.522	233.667
513.152	122
511.779	77.3333
510.407	51.3333
509.034	40.6667
507.663	30.6667
506.29	24
504.917	20.3333
503.543	17.6667
502.167	11.3333
500.793	13.6667
499.419	12
498.043	10.6667
496.668	8
495.291	9
493.916	7.33333
492.539	9
491.161	5.33333
489.783	2.66667
488.405	2.33333
487.027	5.66667
485.649	4.66667
484.268	4.66667
482.889	5.66667
481.51	5.66667
480.129	5.66667
478.75	5
477.368	7.33333
475.986	1.66667
474.604	4.33333
473.221	3.66667
471.839	5
470.456	5.66667
469.073	1.66667
467.69	2.66667
466.307	2.66667
464.921	3
463.537	1
462.151	-0.333333
460.767	2
459.38	2.66667
457.993	2.66667
456.606	4
455.219	3.66667
453.832	1.33333
452.444	4.66667
451.056	2
449.668	1.66667
448.278	3
446.89	3.33333
445.499	3.33333
444.11	2
442.719	3.66667
441.327	2.66667
439.936	4.33333
438.544	3.33333
437.152	3.33333
435.76	5.66667
434.367	5
432.975	5
431.579	5
430.186	2
428.791	5
427.398	4
426.002	3
424.606	5.33333
423.211	3.66667
421.815	3
420.418	3.66667
419.021	4.33333
417.624	5
416.225	3.33333
414.827	1.66667
413.43	4
412.029	3
410.631	2.66667
409.231	2
407.83	0.666667
406.429	4.66667
405.03	2.66667
403.629	0.666667
402.227	2.66667
400.825	3
399.421	2
398.019	1.33333
396.617	3.33333
395.212	4.66667
393.809	5
392.404	2.33333
391	4.33333
389.595	4.66667
388.189	1.66667
386.783	-0.333333
385.377	1.66667
383.97	3.33333
382.563	3.33333
381.157	4.66667
379.747	4
378.34	3
376.932	1
375.522	3.33333
374.112	3.66667
372.704	3.66667
371.294	4.33333
369.883	4
368.472	4.33333
367.061	3.66667
365.649	3
364.238	2.33333
362.826	0.666667
361.411	4.66667
359.999	4.33333
358.585	4.33333
357.172	6.33333
355.757	4.66667
354.342	3
352.928	3
351.513	4
350.097	3.66667
348.68	7.66667
347.264	3
345.845	5.33333
344.429	2.66667
343.012	3.66667
341.948	5.33333