File: packages/dopes/dopes-2025.1.0.tar.gz/dopes-2025.1.0/examples/data_analysis/raman_silicon/data/514nm_1%_15s/W3L150_24_bottom.txt
692.206	5
690.885	6.33333
689.564	4.33333
688.241	8.33333
686.917	8
685.596	7.33333
684.272	6.66667
682.948	6.66667
681.624	8.33333
680.299	7
678.975	7.33333
677.65	7.66667
676.323	10.3333
674.998	9.66667
673.67	5.66667
672.344	7.33333
671.017	7
669.689	10.3333
668.362	7
667.034	8.33333
665.705	12
664.376	7.66667
663.045	9.33333
661.716	10.6667
660.387	9.33333
659.055	9
657.725	9
656.393	8
655.063	6.66667
653.73	7.66667
652.398	7
651.065	9.66667
649.732	6.66667
648.399	10.6667
647.065	7.33333
645.729	5.66667
644.396	9
643.062	8
641.725	6
640.389	4
639.054	6.66667
637.717	8.66667
636.38	6.66667
635.043	9.66667
633.705	5
632.368	8.66667
631.03	6.66667
629.689	6.33333
628.351	11.3333
627.011	7.33333
625.672	10
624.331	11
622.99	9.33333
621.651	8
620.309	10.3333
618.967	11.3333
617.625	8.66667
616.281	9.33333
614.939	10
613.596	10
612.251	11
610.908	10.6667
609.563	10
608.22	8
606.874	8
605.528	8
604.182	9.33333
602.836	8.66667
601.49	8
600.143	9.33333
598.794	8.33333
597.447	11.3333
596.1	7
594.75	5
593.403	7.66667
592.053	9
590.703	8
589.353	8.66667
588.002	6.66667
586.651	6.66667
585.3	9.33333
583.949	7
582.598	9.66667
581.244	10.6667
579.893	4
578.539	7.33333
577.187	8
575.832	7.33333
574.478	8.33333
573.123	6.33333
571.768	6.33333
570.413	7
569.057	9.33333
567.702	8.33333
566.346	9.66667
564.988	7.33333
563.632	8.66667
562.273	12
560.916	8.66667
559.558	7.66667
558.198	16
556.839	10.3333
555.48	10.3333
554.12	10
552.76	10.6667
551.4	15.3333
550.039	11.6667
548.677	12.6667
547.316	15.6667
545.953	14.3333
544.592	15.3333
543.229	18.6667
541.865	18.6667
540.501	22
539.137	22.3333
537.773	23.3333
536.408	27.3333
535.044	25
533.679	37.3333
532.312	33
530.946	40.6667
529.579	62.3333
528.213	79.3333
526.845	104.667
525.477	157.667
524.111	276.333
522.742	573
521.373	1413.33
520.002	1943.67
518.633	1028.67
517.263	444
515.894	226.333
514.522	149.667
513.152	92.3333
511.779	73.3333
510.407	51.6667
509.034	40.6667
507.663	39
506.29	27.6667
504.917	23.6667
503.543	21
502.167	26
500.793	20.3333
499.419	19.3333
498.043	17.3333
496.668	20
495.291	16
493.916	12.6667
492.539	12
491.161	14
489.783	13.6667
488.405	14.6667
487.027	7.33333
485.649	13.6667
484.268	8.33333
482.889	11.3333
481.51	11
480.129	10
478.75	11
477.368	7.33333
475.986	12
474.604	7.66667
473.221	7.66667
471.839	8.66667
470.456	11.3333
469.073	10
467.69	7.33333
466.307	11
464.921	4.66667
463.537	6.33333
462.151	5.33333
460.767	7
459.38	11
457.993	8
456.606	8.66667
455.219	6.33333
453.832	6
452.444	7
451.056	5.66667
449.668	6.33333
448.278	8.66667
446.89	9
445.499	9.33333
444.11	7.33333
442.719	10
441.327	9
439.936	9
438.544	10
437.152	9
435.76	12.3333
434.367	9.33333
432.975	12.6667
431.579	11
430.186	10.6667
428.791	9
427.398	9.33333
426.002	12
424.606	10.6667
423.211	12.6667
421.815	10.3333
420.418	11.3333
419.021	9.66667
417.624	7
416.225	10
414.827	12
413.43	6.33333
412.029	8
410.631	11
409.231	9
407.83	7.66667
406.429	9
405.03	10.6667
403.629	8.66667
402.227	5.33333
400.825	8.66667
399.421	6
398.019	8.66667
396.617	8.66667
395.212	12
393.809	10.6667
392.404	9.66667
391	9
389.595	12
388.189	10.3333
386.783	10.6667
385.377	9
383.97	8
382.563	11.3333
381.157	13
379.747	8.66667
378.34	10
376.932	10
375.522	10.6667
374.112	8.66667
372.704	9.66667
371.294	9
369.883	9.33333
368.472	9.66667
367.061	9.33333
365.649	8
364.238	11
362.826	12
361.411	12.6667
359.999	9.66667
358.585	10.3333
357.172	9.33333
355.757	6.66667
354.342	12.3333
352.928	9.66667
351.513	6.33333
350.097	10.3333
348.68	11.3333
347.264	10.6667
345.845	9.66667
344.429	12.3333
343.012	8.66667
341.948	11.6667