File: packages/dopes/dopes-2025.1.0.tar.gz/dopes-2025.1.0/examples/data_analysis/raman_silicon/data/514nm_1%_15s/W3L150_6_top.txt
692.206	-0.666667
690.885	1.66667
689.564	-1.33333
688.241	-0.333333
686.917	-2
685.596	1
684.272	0
682.948	0.333333
681.624	3.33333
680.299	-1.33333
678.975	-0.333333
677.65	1.33333
676.323	0
674.998	1.66667
673.67	3.33333
672.344	1.33333
671.017	-0.333333
669.689	-1.66667
668.362	-1
667.034	1.66667
665.705	2.66667
664.376	-1.66667
663.045	2
661.716	1
660.387	-0.666667
659.055	4
657.725	3.33333
656.393	0.666667
655.063	-2
653.73	3.66667
652.398	1.33333
651.065	1
649.732	2.33333
648.399	2
647.065	-0.333333
645.729	1.66667
644.396	3
643.062	-1
641.725	1.66667
640.389	2.33333
639.054	0.333333
637.717	1.33333
636.38	0.333333
635.043	4.33333
633.705	1.33333
632.368	-0.333333
631.03	0.333333
629.689	5
628.351	2
627.011	4.33333
625.672	0.666667
624.331	-0.333333
622.99	0
621.651	1
620.309	0
618.967	2
617.625	2.66667
616.281	4
614.939	1.66667
613.596	3.66667
612.251	2.33333
610.908	-1
609.563	3.66667
608.22	1.66667
606.874	0
605.528	-1
604.182	-0.333333
602.836	-1
601.49	-1
600.143	0.333333
598.794	0.333333
597.447	0.333333
596.1	0.333333
594.75	0.666667
593.403	0.333333
592.053	1.33333
590.703	0
589.353	2.33333
588.002	-1
586.651	1
585.3	3
583.949	2.66667
582.598	0.333333
581.244	2
579.893	1.33333
578.539	2
577.187	-0.666667
575.832	-1
574.478	0
573.123	1.33333
571.768	-2
570.413	1.66667
569.057	1
567.702	3.66667
566.346	1
564.988	4.33333
563.632	2.33333
562.273	2.33333
560.916	1
559.558	0
558.198	1.66667
556.839	5.66667
555.48	5.33333
554.12	5
552.76	5
551.4	6
550.039	6.33333
548.677	4.66667
547.316	7.33333
545.953	7.66667
544.592	7.66667
543.229	8.66667
541.865	9.33333
540.501	12.3333
539.137	9
537.773	16
536.408	16.3333
535.044	20.3333
533.679	20.6667
532.312	23
530.946	34
529.579	41.3333
528.213	54.6667
526.845	81
525.477	119
524.111	214.333
522.742	440.667
521.373	1056.33
520.002	1611.33
518.633	1039
517.263	438
515.894	206.333
514.522	122.333
513.152	78.6667
511.779	55.6667
510.407	40
509.034	33.6667
507.663	29.3333
506.29	22
504.917	14.3333
503.543	16
502.167	12
500.793	12.3333
499.419	7.66667
498.043	11.3333
496.668	6.33333
495.291	7.33333
493.916	7.66667
492.539	8.33333
491.161	5
489.783	3.33333
488.405	3.66667
487.027	5.33333
485.649	6.66667
484.268	5
482.889	7
481.51	1.66667
480.129	2
478.75	3
477.368	4.33333
475.986	2
474.604	2.33333
473.221	3.33333
471.839	3.66667
470.456	3.33333
469.073	1
467.69	3
466.307	2
464.921	2.33333
463.537	2
462.151	2
460.767	-1
459.38	1.33333
457.993	-1
456.606	1.33333
455.219	-1.66667
453.832	5
452.444	-1.66667
451.056	3.33333
449.668	4.66667
448.278	1.66667
446.89	3.66667
445.499	0.666667
444.11	2.66667
442.719	1.33333
441.327	0
439.936	1.66667
438.544	-0.666667
437.152	5.66667
435.76	1.33333
434.367	2.66667
432.975	3.33333
431.579	1.33333
430.186	4.66667
428.791	5.33333
427.398	0.333333
426.002	3.66667
424.606	0.333333
423.211	5
421.815	2.33333
420.418	4.33333
419.021	1.66667
417.624	1
416.225	3
414.827	2.66667
413.43	1.33333
412.029	0.333333
410.631	1.33333
409.231	0.333333
407.83	4.66667
406.429	3.33333
405.03	3.33333
403.629	3
402.227	3
400.825	4.33333
399.421	2
398.019	3
396.617	0
395.212	0
393.809	3.33333
392.404	0
391	2.66667
389.595	2
388.189	3.66667
386.783	1
385.377	2.33333
383.97	1
382.563	2.33333
381.157	1.33333
379.747	3
378.34	-1
376.932	2.33333
375.522	4.33333
374.112	2.66667
372.704	4
371.294	0.333333
369.883	2
368.472	3.33333
367.061	4.33333
365.649	3.66667
364.238	3
362.826	3
361.411	4.66667
359.999	2.33333
358.585	4
357.172	1.33333
355.757	1.66667
354.342	3
352.928	2
351.513	1.33333
350.097	4.33333
348.68	4
347.264	0.333333
345.845	2.66667
344.429	4.66667
343.012	5
341.948	3.33333