File: packages/dopes/dopes-2025.1.0.tar.gz/dopes-2025.1.0/examples/data_analysis/raman_silicon/data/514nm_1%_15s/W3L150_6_bottom.txt
692.206	-0.333333
690.885	-0.333333
689.564	-0.666667
688.241	1.66667
686.917	-1.33333
685.596	-0.666667
684.272	2
682.948	1.33333
681.624	0.666667
680.299	1.66667
678.975	0
677.65	2.66667
676.323	1.33333
674.998	0
673.67	2.66667
672.344	0.333333
671.017	-1.33333
669.689	1.66667
668.362	4
667.034	1.33333
665.705	2.33333
664.376	0.333333
663.045	0.666667
661.716	2.66667
660.387	1.66667
659.055	2
657.725	1.66667
656.393	2.66667
655.063	1
653.73	-2
652.398	1.33333
651.065	2.66667
649.732	-1.66667
648.399	2.33333
647.065	1
645.729	0.666667
644.396	0
643.062	0
641.725	4.66667
640.389	4.66667
639.054	3
637.717	1.66667
636.38	0.666667
635.043	1
633.705	0.666667
632.368	-1
631.03	1.66667
629.689	2.33333
628.351	2
627.011	1
625.672	1
624.331	0.333333
622.99	3.33333
621.651	1.66667
620.309	5.33333
618.967	3.66667
617.625	4.66667
616.281	2.66667
614.939	4.66667
613.596	2.66667
612.251	2.33333
610.908	4.66667
609.563	3
608.22	0.666667
606.874	2.33333
605.528	-1
604.182	1
602.836	0.666667
601.49	0.666667
600.143	1
598.794	1
597.447	2.66667
596.1	1.33333
594.75	0.666667
593.403	1.33333
592.053	2
590.703	-2.66667
589.353	0.333333
588.002	-1.66667
586.651	0.666667
585.3	0.666667
583.949	1.33333
582.598	1.33333
581.244	-2.66667
579.893	-2
578.539	-0.333333
577.187	-0.666667
575.832	2.33333
574.478	0.333333
573.123	-2.66667
571.768	1.66667
570.413	0.333333
569.057	2
567.702	0.666667
566.346	-0.333333
564.988	6
563.632	1.66667
562.273	4
560.916	4.33333
559.558	3
558.198	0.333333
556.839	2
555.48	5.33333
554.12	5
552.76	5.33333
551.4	4
550.039	7.33333
548.677	7.66667
547.316	5.66667
545.953	8
544.592	7.66667
543.229	8
541.865	10.6667
540.501	13.6667
539.137	12.3333
537.773	16
536.408	16
535.044	16
533.679	24.3333
532.312	25.6667
530.946	37.6667
529.579	50
528.213	65.3333
526.845	96.3333
525.477	138.667
524.111	249.667
522.742	540.333
521.373	1254
520.002	1825.33
518.633	1176.67
517.263	495.667
515.894	237.333
514.522	136.667
513.152	88
511.779	59.6667
510.407	49
509.034	33.6667
507.663	25.3333
506.29	27.3333
504.917	22.6667
503.543	17.6667
502.167	14.3333
500.793	8.33333
499.419	10.6667
498.043	8
496.668	10.3333
495.291	7.33333
493.916	8.33333
492.539	7
491.161	8.33333
489.783	3.33333
488.405	4
487.027	3.33333
485.649	5.33333
484.268	5.33333
482.889	2.66667
481.51	5
480.129	1
478.75	2
477.368	2.66667
475.986	1.66667
474.604	2
473.221	4.66667
471.839	0.666667
470.456	-0.333333
469.073	1.66667
467.69	2
466.307	1.33333
464.921	1
463.537	3
462.151	-0.666667
460.767	1.33333
459.38	0.333333
457.993	2
456.606	0.666667
455.219	0.333333
453.832	-0.666667
452.444	1.33333
451.056	-0.666667
449.668	0.333333
448.278	4.33333
446.89	2.33333
445.499	1
444.11	3
442.719	2.33333
441.327	1
439.936	1.66667
438.544	6
437.152	2.33333
435.76	3
434.367	0.666667
432.975	0.666667
431.579	2.66667
430.186	2
428.791	2
427.398	-0.333333
426.002	5.33333
424.606	0.666667
423.211	2
421.815	4.33333
420.418	1.33333
419.021	2.66667
417.624	-2
416.225	1.66667
414.827	3.33333
413.43	2.33333
412.029	2.66667
410.631	0
409.231	4
407.83	3.33333
406.429	3.66667
405.03	2.33333
403.629	2.66667
402.227	2
400.825	2.33333
399.421	1
398.019	1
396.617	1
395.212	0.666667
393.809	2.66667
392.404	0.666667
391	0.666667
389.595	2.66667
388.189	2.66667
386.783	2.66667
385.377	4.66667
383.97	2
382.563	1.33333
381.157	0.333333
379.747	1.66667
378.34	5.33333
376.932	3.33333
375.522	4.66667
374.112	1.66667
372.704	1.33333
371.294	4
369.883	5
368.472	2
367.061	2.66667
365.649	2
364.238	4.66667
362.826	4
361.411	3
359.999	6.33333
358.585	4
357.172	0.333333
355.757	3.33333
354.342	5.33333
352.928	3.33333
351.513	2.33333
350.097	4.66667
348.68	2.33333
347.264	0
345.845	0.333333
344.429	1.33333
343.012	1.33333
341.948	3