File: packages/dopes/dopes-2025.1.0.tar.gz/dopes-2025.1.0/examples/data_analysis/raman_silicon/data/514nm_1%_15s/W3L150_10_bottom.txt
692.206	2.33333
690.885	0.666667
689.564	-0.666667
688.241	3.33333
686.917	0.666667
685.596	1
684.272	-0.333333
682.948	1.33333
681.624	-1.33333
680.299	3.33333
678.975	2.33333
677.65	1.66667
676.323	1
674.998	1.66667
673.67	2
672.344	2.33333
671.017	2.33333
669.689	1
668.362	3
667.034	2
665.705	3
664.376	1.66667
663.045	2
661.716	6
660.387	2.66667
659.055	0.333333
657.725	1.33333
656.393	-0.666667
655.063	4.66667
653.73	2.33333
652.398	0.666667
651.065	3
649.732	1
648.399	0
647.065	3.33333
645.729	2.66667
644.396	0
643.062	0.666667
641.725	0.666667
640.389	3.66667
639.054	1
637.717	2.66667
636.38	3
635.043	2
633.705	1
632.368	4
631.03	2
629.689	5.33333
628.351	2.33333
627.011	1.66667
625.672	1.33333
624.331	2.66667
622.99	3.66667
621.651	2.66667
620.309	1.33333
618.967	1.66667
617.625	4.66667
616.281	4.33333
614.939	1.33333
613.596	4
612.251	1.66667
610.908	4.33333
609.563	0.333333
608.22	1.66667
606.874	4
605.528	4.33333
604.182	2
602.836	3.33333
601.49	4.66667
600.143	-1
598.794	1.66667
597.447	3.33333
596.1	5.66667
594.75	2
593.403	2
592.053	-0.666667
590.703	2.33333
589.353	2.66667
588.002	2.66667
586.651	4.33333
585.3	0.333333
583.949	2
582.598	4.33333
581.244	0.666667
579.893	3.33333
578.539	3.33333
577.187	2.33333
575.832	2.66667
574.478	2
573.123	2
571.768	4
570.413	2.33333
569.057	3.33333
567.702	1.33333
566.346	3.66667
564.988	1.33333
563.632	2.66667
562.273	4.33333
560.916	0.333333
559.558	2.66667
558.198	4.66667
556.839	4.66667
555.48	6
554.12	6.66667
552.76	4.66667
551.4	4
550.039	6
548.677	2.66667
547.316	3
545.953	8.66667
544.592	7
543.229	9
541.865	10.6667
540.501	11
539.137	12.3333
537.773	12
536.408	12.3333
535.044	15
533.679	20.3333
532.312	21.6667
530.946	28.3333
529.579	30.6667
528.213	43.6667
526.845	59.3333
525.477	94.3333
524.111	158.333
522.742	306.667
521.373	675.667
520.002	1159.67
518.633	1157
517.263	604
515.894	258
514.522	145
513.152	91.3333
511.779	56.6667
510.407	42.3333
509.034	31.3333
507.663	27
506.29	18.3333
504.917	17.3333
503.543	7.66667
502.167	10.3333
500.793	9.66667
499.419	6.66667
498.043	10
496.668	8.66667
495.291	9.33333
493.916	1
492.539	5
491.161	9
489.783	7.33333
488.405	7.33333
487.027	2
485.649	5.66667
484.268	4.33333
482.889	4
481.51	5
480.129	5.66667
478.75	5.66667
477.368	3.33333
475.986	4.33333
474.604	3
473.221	0.333333
471.839	5
470.456	3.66667
469.073	5
467.69	5
466.307	2.66667
464.921	4.66667
463.537	2
462.151	1
460.767	3
459.38	1
457.993	1.66667
456.606	0.666667
455.219	2.66667
453.832	2.33333
452.444	-1
451.056	3.66667
449.668	2
448.278	4.33333
446.89	5
445.499	1.33333
444.11	4
442.719	2
441.327	1.33333
439.936	2.66667
438.544	2.66667
437.152	2.33333
435.76	6
434.367	2
432.975	3.66667
431.579	4
430.186	3.66667
428.791	3.33333
427.398	3.66667
426.002	4
424.606	4
423.211	4
421.815	2.33333
420.418	4
419.021	4.66667
417.624	5.66667
416.225	5.33333
414.827	2.33333
413.43	1.33333
412.029	2.66667
410.631	4
409.231	-0.333333
407.83	2.66667
406.429	3
405.03	-1
403.629	2
402.227	1
400.825	1
399.421	2
398.019	3
396.617	2.66667
395.212	4.33333
393.809	3
392.404	2
391	2.66667
389.595	2.66667
388.189	-0.333333
386.783	1.33333
385.377	0
383.97	3.66667
382.563	3
381.157	2
379.747	1.66667
378.34	1.33333
376.932	1.66667
375.522	2.66667
374.112	2.66667
372.704	2
371.294	3.33333
369.883	3.33333
368.472	2.33333
367.061	5.33333
365.649	2.66667
364.238	2.66667
362.826	2.66667
361.411	4.33333
359.999	1.66667
358.585	3.33333
357.172	2.66667
355.757	4
354.342	0
352.928	4
351.513	3
350.097	1.33333
348.68	5.66667
347.264	2.66667
345.845	4
344.429	5
343.012	1.66667
341.948	3