File: packages/dopes/dopes-2025.1.0.tar.gz/dopes-2025.1.0/examples/data_analysis/raman_silicon/data/514nm_1%_15s/W3L150_1_bottom.txt
692.206	-4.66667
690.885	-3.66667
689.564	-4
688.241	-3.33333
686.917	-3.66667
685.596	-3
684.272	-2
682.948	-4.33333
681.624	-5
680.299	-1.66667
678.975	-3.66667
677.65	-4
676.323	-4.33333
674.998	-2.33333
673.67	-2.66667
672.344	0.666667
671.017	-1
669.689	-3.66667
668.362	1.66667
667.034	-4.33333
665.705	-1.66667
664.376	-3.33333
663.045	-1
661.716	-2.33333
660.387	-4.66667
659.055	0.333333
657.725	-0.333333
656.393	0
655.063	-0.333333
653.73	-5.33333
652.398	-1
651.065	-1.66667
649.732	-3.33333
648.399	-0.333333
647.065	-2
645.729	-3.66667
644.396	-1
643.062	-1.33333
641.725	-1.66667
640.389	-2
639.054	-0.333333
637.717	0.333333
636.38	-1.66667
635.043	-2.66667
633.705	-2.33333
632.368	1
631.03	-0.333333
629.689	-0.333333
628.351	-1.66667
627.011	0
625.672	-2.33333
624.331	-2.66667
622.99	0.666667
621.651	-0.666667
620.309	-1.66667
618.967	1.33333
617.625	0.333333
616.281	-2
614.939	-0.333333
613.596	0
612.251	-0.666667
610.908	-2.33333
609.563	0.333333
608.22	-0.666667
606.874	-1.66667
605.528	-1.66667
604.182	-1.66667
602.836	1.33333
601.49	-1.66667
600.143	-2.33333
598.794	-1.66667
597.447	-3.66667
596.1	-3
594.75	-3
593.403	-0.333333
592.053	-1
590.703	-0.333333
589.353	0.666667
588.002	-4
586.651	0
585.3	0.666667
583.949	-1.33333
582.598	-4
581.244	-2.66667
579.893	-1
578.539	-0.666667
577.187	1.33333
575.832	-1.66667
574.478	-0.666667
573.123	-2
571.768	-1.33333
570.413	-1.33333
569.057	-1.66667
567.702	-0.333333
566.346	1.33333
564.988	-2.66667
563.632	2.66667
562.273	0.333333
560.916	-2.33333
559.558	-0.333333
558.198	-1
556.839	2
555.48	-0.666667
554.12	0
552.76	5.33333
551.4	2
550.039	3.66667
548.677	3.33333
547.316	4.33333
545.953	5.66667
544.592	7.33333
543.229	2.66667
541.865	6.33333
540.501	7.33333
539.137	8.66667
537.773	7.66667
536.408	14.6667
535.044	14.3333
533.679	18.3333
532.312	22
530.946	28
529.579	33.6667
528.213	52.6667
526.845	72.3333
525.477	114.667
524.111	209.667
522.742	430
521.373	1009.67
520.002	1440
518.633	830.667
517.263	358
515.894	178
514.522	95
513.152	58.6667
511.779	47.3333
510.407	31.6667
509.034	24.6667
507.663	23.3333
506.29	17.6667
504.917	12.3333
503.543	11
502.167	10
500.793	8.66667
499.419	4.66667
498.043	5.33333
496.668	2.33333
495.291	3.66667
493.916	3.33333
492.539	4.33333
491.161	5
489.783	3
488.405	4.66667
487.027	1.66667
485.649	1.66667
484.268	2.33333
482.889	-0.333333
481.51	0.333333
480.129	0.666667
478.75	-1
477.368	1
475.986	1
474.604	-0.333333
473.221	-0.333333
471.839	-1.66667
470.456	-1.66667
469.073	1
467.69	-0.333333
466.307	1
464.921	-3.66667
463.537	0.333333
462.151	-1.33333
460.767	-0.666667
459.38	-3.33333
457.993	-2.66667
456.606	-0.666667
455.219	-2
453.832	-1.33333
452.444	0
451.056	-1.66667
449.668	0
448.278	-1.66667
446.89	-0.333333
445.499	-1.33333
444.11	-1.66667
442.719	3.33333
441.327	-1.66667
439.936	-1.66667
438.544	-2.33333
437.152	0.666667
435.76	1.33333
434.367	0
432.975	-1.33333
431.579	-1
430.186	0
428.791	-4.33333
427.398	-3
426.002	0
424.606	-2.33333
423.211	1
421.815	-2.33333
420.418	-1
419.021	-2
417.624	-0.666667
416.225	-4.33333
414.827	0
413.43	-0.666667
412.029	-0.666667
410.631	2.33333
409.231	0.333333
407.83	0
406.429	-0.333333
405.03	0.666667
403.629	-2.66667
402.227	1.33333
400.825	-1
399.421	0.333333
398.019	-1
396.617	-4
395.212	-1
393.809	-1.33333
392.404	-0.333333
391	-0.666667
389.595	0.333333
388.189	0.333333
386.783	0.333333
385.377	-2
383.97	-2
382.563	-0.666667
381.157	-0.666667
379.747	-5
378.34	-2.66667
376.932	-1
375.522	-2.33333
374.112	0
372.704	0
371.294	0
369.883	-3
368.472	-1
367.061	-1.66667
365.649	-1
364.238	-3.66667
362.826	-2.33333
361.411	-1.66667
359.999	-2
358.585	0.666667
357.172	0.666667
355.757	-3
354.342	-1.33333
352.928	-0.333333
351.513	1.33333
350.097	0.333333
348.68	0.333333
347.264	0.333333
345.845	1
344.429	1
343.012	0.666667
341.948	-1.33333