File: packages/dopes/dopes-2025.1.0.tar.gz/dopes-2025.1.0/examples/data_analysis/raman_silicon/data/514nm_1%_15s/W3L150_3_top.txt
692.206	0.333333
690.885	-0.333333
689.564	-1.66667
688.241	-1
686.917	0.333333
685.596	-2.66667
684.272	0.666667
682.948	0.333333
681.624	2.33333
680.299	1.66667
678.975	-3
677.65	-1
676.323	-1.33333
674.998	2.33333
673.67	0.333333
672.344	1
671.017	0
669.689	-1.33333
668.362	0.333333
667.034	0
665.705	1
664.376	1.66667
663.045	0
661.716	0
660.387	-3.33333
659.055	1.33333
657.725	1
656.393	0.666667
655.063	1
653.73	0.333333
652.398	0.333333
651.065	1.33333
649.732	0.333333
648.399	1
647.065	1
645.729	-2.33333
644.396	1
643.062	-0.333333
641.725	-0.666667
640.389	-0.666667
639.054	-1.66667
637.717	1.66667
636.38	-0.666667
635.043	2.33333
633.705	1
632.368	1.66667
631.03	-1
629.689	1
628.351	0.333333
627.011	-3
625.672	-1.33333
624.331	-0.666667
622.99	1.33333
621.651	0.666667
620.309	1.66667
618.967	0
617.625	1.66667
616.281	0.666667
614.939	2
613.596	3.33333
612.251	1.33333
610.908	2.33333
609.563	2.33333
608.22	2.33333
606.874	-0.333333
605.528	-0.666667
604.182	1.66667
602.836	0.666667
601.49	-1
600.143	1.33333
598.794	-2.33333
597.447	-0.666667
596.1	-0.666667
594.75	0
593.403	0.666667
592.053	-1
590.703	-0.666667
589.353	-1.33333
588.002	-1
586.651	0.333333
585.3	-0.333333
583.949	0
582.598	0
581.244	1.33333
579.893	1
578.539	1.33333
577.187	0.333333
575.832	-2
574.478	0
573.123	-2
571.768	0.666667
570.413	-1.33333
569.057	4
567.702	1
566.346	1.66667
564.988	-1
563.632	-1
562.273	3.33333
560.916	-0.333333
559.558	2.33333
558.198	1
556.839	3.66667
555.48	3.33333
554.12	2.33333
552.76	4
551.4	3
550.039	3
548.677	4.66667
547.316	5.33333
545.953	8.33333
544.592	5.66667
543.229	7
541.865	13
540.501	9.33333
539.137	12.6667
537.773	16.6667
536.408	16.3333
535.044	21.3333
533.679	23.6667
532.312	31.6667
530.946	41
529.579	52.6667
528.213	73
526.845	96
525.477	147.333
524.111	277.667
522.742	577.333
521.373	1364
520.002	2014.33
518.633	1161
517.263	526
515.894	246.667
514.522	144
513.152	97.3333
511.779	68
510.407	43
509.034	36.3333
507.663	30.6667
506.29	21.6667
504.917	19
503.543	18.3333
502.167	16.3333
500.793	12
499.419	12.6667
498.043	4
496.668	7
495.291	7
493.916	6
492.539	5.33333
491.161	4.66667
489.783	5
488.405	6.66667
487.027	3
485.649	3.66667
484.268	3.33333
482.889	1
481.51	4.33333
480.129	1.66667
478.75	1
477.368	3.66667
475.986	2.33333
474.604	0.333333
473.221	2
471.839	3.33333
470.456	0
469.073	-0.333333
467.69	3.33333
466.307	1.33333
464.921	0
463.537	1
462.151	-1.33333
460.767	2
459.38	-1.33333
457.993	0
456.606	0.333333
455.219	0.666667
453.832	-0.333333
452.444	0.666667
451.056	0
449.668	4
448.278	0.666667
446.89	1
445.499	1.33333
444.11	1.66667
442.719	1.66667
441.327	1.66667
439.936	0.666667
438.544	3
437.152	2
435.76	2.66667
434.367	1.66667
432.975	4
431.579	0.333333
430.186	2.66667
428.791	3
427.398	2.33333
426.002	-0.333333
424.606	1
423.211	0.333333
421.815	1.66667
420.418	1.66667
419.021	1
417.624	2
416.225	1
414.827	3.33333
413.43	2.66667
412.029	2
410.631	4.33333
409.231	1.66667
407.83	-0.333333
406.429	2
405.03	1.33333
403.629	0.666667
402.227	-1
400.825	3.33333
399.421	1
398.019	2.33333
396.617	4
395.212	0.333333
393.809	1.33333
392.404	1
391	1.66667
389.595	1.33333
388.189	1.33333
386.783	3.33333
385.377	1
383.97	2.33333
382.563	1.66667
381.157	0.333333
379.747	2.33333
378.34	1.33333
376.932	0.666667
375.522	0.333333
374.112	1.33333
372.704	1.66667
371.294	-0.333333
369.883	3
368.472	0
367.061	1
365.649	1.33333
364.238	2
362.826	0.666667
361.411	3.33333
359.999	7
358.585	2.66667
357.172	0.666667
355.757	2.66667
354.342	3
352.928	0.666667
351.513	4
350.097	0.333333
348.68	2
347.264	4
345.845	0.333333
344.429	3
343.012	3.33333
341.948	4.66667