File: packages/dopes/dopes-2025.1.0.tar.gz/dopes-2025.1.0/examples/data_analysis/raman_silicon/data/514nm_1%_15s/W3L150_19_bottom.txt
692.206	2.66667
690.885	3.66667
689.564	2.33333
688.241	6.66667
686.917	6
685.596	3
684.272	4.33333
682.948	3.33333
681.624	3.66667
680.299	6
678.975	3.66667
677.65	5.33333
676.323	5
674.998	5.33333
673.67	4
672.344	7.33333
671.017	-0.333333
669.689	2.66667
668.362	5.33333
667.034	5
665.705	7.66667
664.376	5.33333
663.045	6.66667
661.716	4.66667
660.387	6.66667
659.055	5.33333
657.725	4.66667
656.393	7.66667
655.063	6
653.73	7
652.398	3.33333
651.065	5.66667
649.732	5
648.399	2.33333
647.065	5.66667
645.729	5
644.396	6
643.062	4.33333
641.725	4.66667
640.389	7
639.054	6
637.717	5.66667
636.38	4.66667
635.043	3
633.705	5.66667
632.368	6
631.03	3.33333
629.689	5
628.351	5
627.011	8.33333
625.672	3
624.331	6.66667
622.99	5.33333
621.651	5
620.309	7.33333
618.967	3.33333
617.625	5.66667
616.281	10
614.939	7.33333
613.596	4.66667
612.251	4.33333
610.908	6.66667
609.563	6.66667
608.22	4.66667
606.874	7
605.528	8.33333
604.182	4.66667
602.836	5.33333
601.49	5.33333
600.143	2.66667
598.794	5.66667
597.447	6.33333
596.1	4.33333
594.75	3.33333
593.403	5.33333
592.053	2.66667
590.703	7
589.353	5.66667
588.002	4.66667
586.651	5.33333
585.3	0
583.949	5
582.598	5
581.244	5.33333
579.893	5
578.539	3
577.187	3.33333
575.832	4
574.478	3.33333
573.123	2.33333
571.768	4.33333
570.413	6.33333
569.057	3.33333
567.702	5.33333
566.346	6.33333
564.988	5.66667
563.632	4.33333
562.273	4.33333
560.916	6.33333
559.558	7
558.198	6.33333
556.839	6.66667
555.48	5.66667
554.12	8
552.76	6.66667
551.4	6
550.039	4
548.677	10
547.316	11.3333
545.953	8.33333
544.592	11
543.229	10
541.865	12.6667
540.501	13.3333
539.137	13.6667
537.773	17
536.408	14.6667
535.044	18
533.679	21.6667
532.312	27.6667
530.946	32.6667
529.579	38
528.213	48.3333
526.845	63.3333
525.477	90
524.111	149.667
522.742	303
521.373	724.667
520.002	1009
518.633	849.667
517.263	766.667
515.894	702.667
514.522	374.333
513.152	186.667
511.779	104
510.407	66.6667
509.034	43.6667
507.663	33
506.29	29.3333
504.917	24.3333
503.543	21.3333
502.167	16.6667
500.793	20.3333
499.419	12
498.043	13
496.668	13
495.291	11.3333
493.916	11.3333
492.539	8.33333
491.161	11.6667
489.783	12
488.405	9.66667
487.027	8.33333
485.649	7
484.268	4
482.889	11
481.51	6.33333
480.129	4.66667
478.75	9.66667
477.368	5.33333
475.986	7
474.604	7.66667
473.221	5.66667
471.839	6.33333
470.456	7.66667
469.073	8.33333
467.69	3.66667
466.307	5.33333
464.921	5
463.537	7
462.151	7.33333
460.767	2.66667
459.38	5.33333
457.993	4
456.606	3
455.219	1.33333
453.832	4.66667
452.444	6.66667
451.056	6
449.668	5.33333
448.278	5
446.89	6
445.499	5
444.11	3.66667
442.719	5.66667
441.327	5.66667
439.936	6
438.544	5
437.152	7.66667
435.76	6.66667
434.367	3
432.975	5.66667
431.579	6
430.186	8.33333
428.791	7.66667
427.398	7
426.002	4.33333
424.606	4.33333
423.211	3.66667
421.815	8.66667
420.418	7.66667
419.021	5.66667
417.624	7
416.225	5.33333
414.827	7.66667
413.43	5.33333
412.029	5.66667
410.631	7
409.231	6.33333
407.83	6
406.429	4
405.03	9.33333
403.629	3.66667
402.227	7.33333
400.825	3.33333
399.421	7.66667
398.019	8.33333
396.617	3
395.212	6
393.809	5.66667
392.404	3.33333
391	9.66667
389.595	5.66667
388.189	0.666667
386.783	7.66667
385.377	7
383.97	5.33333
382.563	3
381.157	6.66667
379.747	8.33333
378.34	4.33333
376.932	5.33333
375.522	6
374.112	6.33333
372.704	6.66667
371.294	6.33333
369.883	6.33333
368.472	4.66667
367.061	6
365.649	5.66667
364.238	4.33333
362.826	8.33333
361.411	3.33333
359.999	8.33333
358.585	9
357.172	7
355.757	8
354.342	6
352.928	8
351.513	9.33333
350.097	4.66667
348.68	4.66667
347.264	7.66667
345.845	10.3333
344.429	8.66667
343.012	6.33333
341.948	6.33333