File: packages/dopes/dopes-2025.1.0.tar.gz/dopes-2025.1.0/examples/data_analysis/raman_silicon/data/514nm_1%_15s/W3L150_2_top.txt
692.206	4.33333
690.885	3.66667
689.564	3.33333
688.241	7
686.917	1.33333
685.596	6.66667
684.272	3.66667
682.948	10
681.624	2.66667
680.299	5.66667
678.975	3.33333
677.65	6.66667
676.323	5.66667
674.998	4
673.67	3.66667
672.344	7
671.017	5
669.689	5
668.362	6.33333
667.034	4.33333
665.705	9.66667
664.376	7
663.045	4.66667
661.716	8.66667
660.387	6
659.055	5.66667
657.725	5.66667
656.393	3.66667
655.063	5
653.73	7.33333
652.398	5.33333
651.065	4.33333
649.732	4.33333
648.399	6.33333
647.065	6.66667
645.729	3.33333
644.396	4
643.062	5.33333
641.725	6
640.389	4.33333
639.054	6
637.717	7
636.38	6
635.043	5.66667
633.705	5.33333
632.368	8
631.03	9.66667
629.689	6
628.351	5.66667
627.011	4
625.672	7.33333
624.331	6.33333
622.99	11.6667
621.651	7.66667
620.309	3
618.967	8.33333
617.625	8.33333
616.281	6.66667
614.939	11
613.596	4.66667
612.251	11
610.908	7.66667
609.563	6
608.22	9
606.874	7
605.528	2.66667
604.182	5.66667
602.836	4.33333
601.49	5.66667
600.143	8.33333
598.794	7
597.447	3
596.1	5
594.75	3.66667
593.403	8.33333
592.053	5.66667
590.703	6
589.353	2
588.002	6
586.651	2.33333
585.3	4.33333
583.949	7.33333
582.598	4.33333
581.244	5
579.893	6.33333
578.539	6.33333
577.187	4.66667
575.832	4
574.478	6.33333
573.123	6
571.768	5.33333
570.413	5
569.057	6.33333
567.702	7.33333
566.346	4.33333
564.988	4
563.632	5.66667
562.273	9.33333
560.916	5.66667
559.558	9
558.198	6.66667
556.839	7.66667
555.48	7.33333
554.12	10.6667
552.76	10
551.4	7.33333
550.039	12
548.677	8.66667
547.316	10.6667
545.953	16.6667
544.592	17.6667
543.229	17.6667
541.865	16
540.501	17.3333
539.137	18.6667
537.773	24.6667
536.408	27.6667
535.044	29.3333
533.679	31
532.312	39
530.946	47
529.579	60.3333
528.213	81
526.845	112.667
525.477	174.333
524.111	306
522.742	616.333
521.373	1517.67
520.002	2170.33
518.633	1239.33
517.263	548
515.894	281
514.522	154
513.152	103
511.779	64.6667
510.407	57.3333
509.034	44.6667
507.663	37.6667
506.29	34
504.917	22.3333
503.543	23.3333
502.167	22
500.793	13.6667
499.419	17
498.043	14.3333
496.668	13
495.291	13.6667
493.916	13.6667
492.539	11.3333
491.161	11
489.783	12
488.405	10
487.027	8.66667
485.649	12.3333
484.268	9.66667
482.889	8.33333
481.51	8
480.129	6.33333
478.75	4.33333
477.368	6
475.986	6.66667
474.604	7.66667
473.221	7.66667
471.839	8.66667
470.456	5
469.073	5.66667
467.69	6.33333
466.307	7.33333
464.921	3
463.537	3.33333
462.151	4
460.767	3
459.38	5
457.993	5
456.606	5
455.219	6.33333
453.832	5.66667
452.444	5.33333
451.056	5.33333
449.668	4.66667
448.278	4
446.89	4.66667
445.499	7.66667
444.11	8
442.719	4.66667
441.327	7.33333
439.936	2.33333
438.544	6.66667
437.152	6
435.76	5
434.367	8
432.975	5
431.579	8.66667
430.186	9.66667
428.791	6.33333
427.398	5.66667
426.002	5.33333
424.606	6.33333
423.211	7
421.815	3.66667
420.418	5
419.021	7
417.624	6
416.225	4.33333
414.827	6
413.43	5.66667
412.029	4.66667
410.631	5.33333
409.231	5.66667
407.83	5
406.429	8
405.03	6
403.629	4
402.227	6
400.825	9.33333
399.421	8
398.019	5.33333
396.617	4.66667
395.212	8.33333
393.809	10
392.404	3.33333
391	2
389.595	5.33333
388.189	7
386.783	5
385.377	5.66667
383.97	9.66667
382.563	4.33333
381.157	6.66667
379.747	8
378.34	5.33333
376.932	7.66667
375.522	4
374.112	6
372.704	7
371.294	9.33333
369.883	6.66667
368.472	4
367.061	7.33333
365.649	8.33333
364.238	6.66667
362.826	2
361.411	3.66667
359.999	11.3333
358.585	7.33333
357.172	6.33333
355.757	3.66667
354.342	10
352.928	6
351.513	8.33333
350.097	6
348.68	8.33333
347.264	7
345.845	5.33333
344.429	8
343.012	8.33333
341.948	4.66667