File: packages/dopes/dopes-2025.1.0.tar.gz/dopes-2025.1.0/examples/data_analysis/raman_silicon/data/514nm_1%_15s/W3L150_3_bottom.txt
692.206	0.666667
690.885	-2.66667
689.564	-1.33333
688.241	1.33333
686.917	-0.666667
685.596	-3
684.272	1
682.948	0
681.624	-1.33333
680.299	-2.33333
678.975	0.666667
677.65	0.333333
676.323	1
674.998	-2.33333
673.67	-0.666667
672.344	-1.33333
671.017	0
669.689	-0.333333
668.362	1
667.034	0.333333
665.705	0.333333
664.376	2.33333
663.045	0.333333
661.716	-1.33333
660.387	-2
659.055	-1
657.725	1
656.393	1
655.063	0
653.73	-3.66667
652.398	-1.33333
651.065	-2
649.732	1.33333
648.399	0.666667
647.065	1.33333
645.729	0.333333
644.396	-1
643.062	-0.666667
641.725	0.333333
640.389	0.333333
639.054	0.666667
637.717	-0.666667
636.38	1.66667
635.043	-1
633.705	0.666667
632.368	-2.66667
631.03	1
629.689	-1.33333
628.351	0.666667
627.011	1.66667
625.672	-3
624.331	1
622.99	1.33333
621.651	1.33333
620.309	2.33333
618.967	0
617.625	0.333333
616.281	2.33333
614.939	-1.33333
613.596	2.66667
612.251	1.33333
610.908	-0.333333
609.563	-1.33333
608.22	-0.666667
606.874	-2
605.528	2
604.182	0
602.836	-2
601.49	-0.333333
600.143	-3.66667
598.794	0
597.447	0.666667
596.1	-2.33333
594.75	-1
593.403	1.66667
592.053	-1
590.703	-0.666667
589.353	-2.33333
588.002	-1.66667
586.651	-0.333333
585.3	0.666667
583.949	-2.66667
582.598	0.333333
581.244	-1.66667
579.893	0.333333
578.539	-4.33333
577.187	-1.33333
575.832	-3
574.478	-1.66667
573.123	0.333333
571.768	-0.666667
570.413	1.66667
569.057	0.333333
567.702	2
566.346	-0.666667
564.988	-1.33333
563.632	3.66667
562.273	1.66667
560.916	-1.33333
559.558	0.333333
558.198	1
556.839	-1.33333
555.48	2.66667
554.12	1.33333
552.76	2.66667
551.4	1
550.039	1
548.677	3.66667
547.316	3.33333
545.953	3.33333
544.592	4.66667
543.229	7.66667
541.865	5
540.501	6
539.137	9.66667
537.773	11
536.408	10
535.044	10.3333
533.679	16.3333
532.312	22
530.946	26.3333
529.579	32.6667
528.213	47
526.845	56.6667
525.477	98.3333
524.111	174.667
522.742	378.333
521.373	908.333
520.002	1302.33
518.633	752
517.263	325.333
515.894	162.333
514.522	95.6667
513.152	60.3333
511.779	46.3333
510.407	29.3333
509.034	24.6667
507.663	16.3333
506.29	18
504.917	11.6667
503.543	6
502.167	6
500.793	4.66667
499.419	6.66667
498.043	5
496.668	5.33333
495.291	6
493.916	3.33333
492.539	4.33333
491.161	2.33333
489.783	5.66667
488.405	0
487.027	0.666667
485.649	2.33333
484.268	2.33333
482.889	2.33333
481.51	2.66667
480.129	2
478.75	0
477.368	3.33333
475.986	0.333333
474.604	1.33333
473.221	-1.66667
471.839	-0.666667
470.456	0.666667
469.073	3
467.69	0.333333
466.307	-0.333333
464.921	-0.666667
463.537	0.666667
462.151	-1
460.767	-1.33333
459.38	2
457.993	-2.66667
456.606	1.33333
455.219	-1.33333
453.832	-0.333333
452.444	-1
451.056	-0.333333
449.668	0.666667
448.278	0.666667
446.89	2
445.499	1.33333
444.11	0
442.719	0.333333
441.327	2.33333
439.936	1.66667
438.544	-1.33333
437.152	5.33333
435.76	1
434.367	1.66667
432.975	0
431.579	3
430.186	1
428.791	0.666667
427.398	0.333333
426.002	-0.666667
424.606	0.666667
423.211	-2
421.815	2.33333
420.418	0
419.021	0
417.624	3
416.225	-0.666667
414.827	0.666667
413.43	-1.66667
412.029	1.33333
410.631	-0.333333
409.231	1.33333
407.83	2
406.429	1
405.03	0.666667
403.629	0
402.227	1.66667
400.825	2
399.421	0.666667
398.019	0
396.617	1
395.212	-1.66667
393.809	1.66667
392.404	1.66667
391	-1.33333
389.595	1.33333
388.189	0
386.783	-0.666667
385.377	1
383.97	2.66667
382.563	-1
381.157	0
379.747	0
378.34	2
376.932	0.333333
375.522	1.33333
374.112	0.333333
372.704	2.33333
371.294	-2
369.883	0.666667
368.472	1.33333
367.061	2.66667
365.649	-3.33333
364.238	-0.333333
362.826	-2.33333
361.411	0
359.999	0
358.585	1
357.172	0.333333
355.757	0.666667
354.342	0.666667
352.928	4.66667
351.513	2
350.097	-0.333333
348.68	0
347.264	3.66667
345.845	1.66667
344.429	0.333333
343.012	1.33333
341.948	1