File: packages/dopes/dopes-2025.1.0.tar.gz/dopes-2025.1.0/examples/data_analysis/raman_silicon/data/514nm_1%_15s/W3L150_15_top.txt
692.206	-3.33333
690.885	1.66667
689.564	-0.666667
688.241	1.66667
686.917	-1.33333
685.596	2.66667
684.272	1
682.948	0
681.624	2
680.299	5.33333
678.975	1.66667
677.65	1.66667
676.323	2.33333
674.998	2.33333
673.67	0.666667
672.344	2.66667
671.017	3
669.689	1
668.362	3.66667
667.034	6.33333
665.705	1
664.376	1
663.045	3.66667
661.716	3.66667
660.387	2.66667
659.055	1
657.725	3.66667
656.393	4
655.063	0.666667
653.73	2
652.398	1.66667
651.065	3
649.732	2.66667
648.399	1.66667
647.065	4
645.729	1
644.396	3.33333
643.062	3.66667
641.725	2.66667
640.389	4
639.054	4
637.717	2.33333
636.38	4.66667
635.043	3.66667
633.705	1.66667
632.368	2
631.03	2.66667
629.689	3.33333
628.351	2
627.011	3.33333
625.672	3
624.331	4.66667
622.99	6
621.651	4
620.309	1.33333
618.967	3.33333
617.625	3
616.281	5.66667
614.939	5.66667
613.596	1
612.251	2
610.908	4
609.563	2.66667
608.22	2.33333
606.874	4.33333
605.528	3
604.182	2
602.836	1.33333
601.49	1.66667
600.143	3.66667
598.794	1.33333
597.447	1.66667
596.1	1
594.75	2.33333
593.403	1
592.053	2
590.703	2
589.353	3.66667
588.002	3.33333
586.651	2.33333
585.3	0.333333
583.949	1.66667
582.598	2.33333
581.244	1.66667
579.893	1
578.539	-1
577.187	3.33333
575.832	0.666667
574.478	1.66667
573.123	2.33333
571.768	2
570.413	3.66667
569.057	3.33333
567.702	2.33333
566.346	2.66667
564.988	1.66667
563.632	4.66667
562.273	3.33333
560.916	4
559.558	1
558.198	4
556.839	4.33333
555.48	5
554.12	4.33333
552.76	4.33333
551.4	4.66667
550.039	6.33333
548.677	8.66667
547.316	6
545.953	7.66667
544.592	7.66667
543.229	8.33333
541.865	6.66667
540.501	9.33333
539.137	14.6667
537.773	10.3333
536.408	16
535.044	19.3333
533.679	22
532.312	27.3333
530.946	34
529.579	31.6667
528.213	45.3333
526.845	63.3333
525.477	95.3333
524.111	168.667
522.742	325
521.373	757.333
520.002	1156
518.633	1069
517.263	945.667
515.894	548
514.522	250
513.152	129
511.779	86
510.407	60.3333
509.034	40.6667
507.663	32
506.29	26.3333
504.917	17
503.543	15.6667
502.167	13.6667
500.793	13.6667
499.419	9.33333
498.043	14
496.668	9.66667
495.291	7.66667
493.916	8
492.539	10
491.161	5.66667
489.783	4.66667
488.405	7.66667
487.027	7
485.649	9
484.268	3.66667
482.889	3.66667
481.51	4.66667
480.129	5.33333
478.75	4.33333
477.368	0.666667
475.986	4
474.604	2
473.221	3.66667
471.839	1.66667
470.456	3.33333
469.073	2.66667
467.69	4
466.307	5.33333
464.921	2.66667
463.537	3.33333
462.151	1.33333
460.767	1.66667
459.38	0
457.993	-0.666667
456.606	4
455.219	3
453.832	3.33333
452.444	3
451.056	0
449.668	2.66667
448.278	2.33333
446.89	1
445.499	2.33333
444.11	2
442.719	6
441.327	6.33333
439.936	3.33333
438.544	4.33333
437.152	5
435.76	4.33333
434.367	4.66667
432.975	3.33333
431.579	5
430.186	4.33333
428.791	3.66667
427.398	3.33333
426.002	4.66667
424.606	2.66667
423.211	4
421.815	2
420.418	3
419.021	5
417.624	2.33333
416.225	3
414.827	4
413.43	0
412.029	3.66667
410.631	2.33333
409.231	2
407.83	1.33333
406.429	2
405.03	3.33333
403.629	2.33333
402.227	1.33333
400.825	4
399.421	3.33333
398.019	3
396.617	3.66667
395.212	4.66667
393.809	4
392.404	4.33333
391	5.33333
389.595	4.33333
388.189	2.33333
386.783	2.33333
385.377	3.66667
383.97	1
382.563	1.66667
381.157	3
379.747	3.66667
378.34	3
376.932	3.33333
375.522	4.33333
374.112	3
372.704	2.66667
371.294	5
369.883	5.33333
368.472	4
367.061	1.33333
365.649	1
364.238	4.33333
362.826	3.66667
361.411	4
359.999	5.66667
358.585	4.33333
357.172	5.33333
355.757	1
354.342	2
352.928	5
351.513	1
350.097	5.66667
348.68	4.33333
347.264	4.66667
345.845	4.33333
344.429	4.66667
343.012	6
341.948	5.33333