File: packages/dopes/dopes-2025.1.0.tar.gz/dopes-2025.1.0/examples/data_analysis/raman_silicon/data/514nm_1%_15s/W3L150_8_top.txt
692.206	2.33333
690.885	1.33333
689.564	3.33333
688.241	3.66667
686.917	4.33333
685.596	3.33333
684.272	1
682.948	2.33333
681.624	2.33333
680.299	2.66667
678.975	3
677.65	4
676.323	4
674.998	2
673.67	5.66667
672.344	6
671.017	0
669.689	4.66667
668.362	1.66667
667.034	3.33333
665.705	6
664.376	3.33333
663.045	3.33333
661.716	5
660.387	7.66667
659.055	3.33333
657.725	0.666667
656.393	2
655.063	4.66667
653.73	4
652.398	3.66667
651.065	4.33333
649.732	2.66667
648.399	3
647.065	4.66667
645.729	4.33333
644.396	3.66667
643.062	4
641.725	1.66667
640.389	4.33333
639.054	2.66667
637.717	3
636.38	2.66667
635.043	2.33333
633.705	2
632.368	3.33333
631.03	2
629.689	4.33333
628.351	6.33333
627.011	3.33333
625.672	5
624.331	6.33333
622.99	4.66667
621.651	0.666667
620.309	5.66667
618.967	5
617.625	8.33333
616.281	8.33333
614.939	5.33333
613.596	2.66667
612.251	6.33333
610.908	2.66667
609.563	3
608.22	4.33333
606.874	5
605.528	4.33333
604.182	1
602.836	3.66667
601.49	4
600.143	4.33333
598.794	3.33333
597.447	2
596.1	4.33333
594.75	5.33333
593.403	2
592.053	4
590.703	3.33333
589.353	4.33333
588.002	4
586.651	4
585.3	3.66667
583.949	2
582.598	3.66667
581.244	2.66667
579.893	1.66667
578.539	5.33333
577.187	4.33333
575.832	2
574.478	5
573.123	4
571.768	3
570.413	1.66667
569.057	6.33333
567.702	6.33333
566.346	4
564.988	4
563.632	5.33333
562.273	5
560.916	6
559.558	6
558.198	8.33333
556.839	6.66667
555.48	3.66667
554.12	6
552.76	6.33333
551.4	10.3333
550.039	6.66667
548.677	6.66667
547.316	12.3333
545.953	8.33333
544.592	12.3333
543.229	13
541.865	12.3333
540.501	17.3333
539.137	17.6667
537.773	18.3333
536.408	18.6667
535.044	20
533.679	24.3333
532.312	33.3333
530.946	33.3333
529.579	48.6667
528.213	54.3333
526.845	87
525.477	132.333
524.111	224.333
522.742	469.667
521.373	1080.67
520.002	1725
518.633	1253
517.263	566.333
515.894	259.667
514.522	146
513.152	98.6667
511.779	67
510.407	45.6667
509.034	41.6667
507.663	28.3333
506.29	26
504.917	19.6667
503.543	20
502.167	17.3333
500.793	12.3333
499.419	11
498.043	15.6667
496.668	8
495.291	10.6667
493.916	10.6667
492.539	8.66667
491.161	10
489.783	7
488.405	7
487.027	6.66667
485.649	5
484.268	5
482.889	5.66667
481.51	9.33333
480.129	7
478.75	7
477.368	7.33333
475.986	5.66667
474.604	6.33333
473.221	3.66667
471.839	2.66667
470.456	3.66667
469.073	2
467.69	5.66667
466.307	5
464.921	4.33333
463.537	6
462.151	4
460.767	1.66667
459.38	5
457.993	3.33333
456.606	3
455.219	2
453.832	4.33333
452.444	5
451.056	3.33333
449.668	4.33333
448.278	1.66667
446.89	3.66667
445.499	7.66667
444.11	4.33333
442.719	6.66667
441.327	4.33333
439.936	3.33333
438.544	7.33333
437.152	1.33333
435.76	5.33333
434.367	3
432.975	3
431.579	8
430.186	0.666667
428.791	6
427.398	5
426.002	4.33333
424.606	6
423.211	5.33333
421.815	4
420.418	3.66667
419.021	3
417.624	4.66667
416.225	2
414.827	5.33333
413.43	2.33333
412.029	3.66667
410.631	5.33333
409.231	6
407.83	5.66667
406.429	6
405.03	4
403.629	4.33333
402.227	8.33333
400.825	5
399.421	2
398.019	8.66667
396.617	4.66667
395.212	5.66667
393.809	3.66667
392.404	8.33333
391	3.66667
389.595	7.33333
388.189	4.33333
386.783	4.66667
385.377	5.66667
383.97	4.66667
382.563	7
381.157	3
379.747	4.66667
378.34	4.33333
376.932	2
375.522	6
374.112	4.66667
372.704	6
371.294	2.66667
369.883	6.66667
368.472	3.33333
367.061	4
365.649	4
364.238	4.66667
362.826	6
361.411	4.66667
359.999	5.66667
358.585	5
357.172	5
355.757	3
354.342	6.66667
352.928	7.33333
351.513	5.33333
350.097	4.33333
348.68	5
347.264	2
345.845	4
344.429	9
343.012	8.33333
341.948	7.33333