File: packages/dopes/dopes-2025.1.0.tar.gz/dopes-2025.1.0/examples/data_analysis/raman_silicon/data/514nm_1%_15s/W3L150_20_top.txt
692.206	2.66667
690.885	1.33333
689.564	-0.333333
688.241	0
686.917	1.33333
685.596	3.33333
684.272	2.66667
682.948	1.33333
681.624	3
680.299	3
678.975	3.33333
677.65	2.33333
676.323	5
674.998	1.33333
673.67	2.33333
672.344	3.33333
671.017	4.33333
669.689	4.66667
668.362	2.66667
667.034	3
665.705	4.33333
664.376	5
663.045	3.33333
661.716	5
660.387	4
659.055	2.33333
657.725	3
656.393	2.33333
655.063	3.33333
653.73	3.66667
652.398	3.66667
651.065	3.33333
649.732	2.66667
648.399	5.66667
647.065	2
645.729	1.33333
644.396	1.33333
643.062	0.333333
641.725	5.33333
640.389	3.33333
639.054	3.66667
637.717	5.66667
636.38	1.66667
635.043	4.33333
633.705	3.33333
632.368	4
631.03	3.66667
629.689	3.66667
628.351	3.33333
627.011	3
625.672	3.66667
624.331	3
622.99	7.33333
621.651	4.33333
620.309	4.66667
618.967	4.66667
617.625	3.66667
616.281	6.33333
614.939	5.33333
613.596	6.66667
612.251	5
610.908	6
609.563	3
608.22	4
606.874	4
605.528	6.66667
604.182	5
602.836	4.66667
601.49	4.33333
600.143	5.66667
598.794	0.666667
597.447	4.33333
596.1	4.33333
594.75	3
593.403	0.333333
592.053	3
590.703	4
589.353	5.33333
588.002	2.33333
586.651	0.666667
585.3	0.333333
583.949	3
582.598	4.66667
581.244	4
579.893	2
578.539	3.33333
577.187	4.66667
575.832	2
574.478	5.33333
573.123	1.66667
571.768	2.33333
570.413	4
569.057	3.66667
567.702	3.66667
566.346	4
564.988	5
563.632	3.66667
562.273	3
560.916	5.33333
559.558	6
558.198	6
556.839	5.66667
555.48	4.66667
554.12	8
552.76	8
551.4	7
550.039	5.66667
548.677	8
547.316	11.3333
545.953	6.66667
544.592	11.6667
543.229	12.3333
541.865	10
540.501	11
539.137	15
537.773	17.3333
536.408	17.3333
535.044	16
533.679	21
532.312	21.6667
530.946	34
529.579	33
528.213	46
526.845	61.3333
525.477	86.3333
524.111	146.333
522.742	313.333
521.373	634.333
520.002	979
518.633	905
517.263	825
515.894	816.667
514.522	526.333
513.152	249.333
511.779	143.333
510.407	83
509.034	55
507.663	43
506.29	36
504.917	26.3333
503.543	18.6667
502.167	19.6667
500.793	15.3333
499.419	13
498.043	17.6667
496.668	13.6667
495.291	10.6667
493.916	9.66667
492.539	10.3333
491.161	8
489.783	10
488.405	10.6667
487.027	9.66667
485.649	7
484.268	6
482.889	4
481.51	6.33333
480.129	4.33333
478.75	3
477.368	5
475.986	5.33333
474.604	4
473.221	8.66667
471.839	2.66667
470.456	3
469.073	6.33333
467.69	5.33333
466.307	5.66667
464.921	4.33333
463.537	4.33333
462.151	4.66667
460.767	4
459.38	2.66667
457.993	5
456.606	3.66667
455.219	5
453.832	0.666667
452.444	3.66667
451.056	4.66667
449.668	4.66667
448.278	7
446.89	2
445.499	1
444.11	4.33333
442.719	1.33333
441.327	5
439.936	6
438.544	4
437.152	3.33333
435.76	3.66667
434.367	6.66667
432.975	3.33333
431.579	4.33333
430.186	6
428.791	5.66667
427.398	5
426.002	1.33333
424.606	3
423.211	7.33333
421.815	5.66667
420.418	2.33333
419.021	5
417.624	3.33333
416.225	3.33333
414.827	6
413.43	6.33333
412.029	2.33333
410.631	2.33333
409.231	3
407.83	3.33333
406.429	5.33333
405.03	1.66667
403.629	1.33333
402.227	5.66667
400.825	6
399.421	2.66667
398.019	6
396.617	5
395.212	7
393.809	4.66667
392.404	5.33333
391	6.33333
389.595	5.33333
388.189	3
386.783	3
385.377	3.66667
383.97	6
382.563	4.66667
381.157	6
379.747	5.66667
378.34	5.33333
376.932	3
375.522	3.66667
374.112	2.66667
372.704	5.66667
371.294	2.33333
369.883	5
368.472	2.66667
367.061	3.66667
365.649	4
364.238	4
362.826	3
361.411	5
359.999	5
358.585	5.66667
357.172	4.66667
355.757	6.33333
354.342	4
352.928	5.33333
351.513	4.33333
350.097	6.33333
348.68	5
347.264	5.33333
345.845	9
344.429	4
343.012	3.66667
341.948	6