File: packages/dopes/dopes-2025.1.0.tar.gz/dopes-2025.1.0/examples/data_analysis/raman_silicon/data/514nm_1%_15s/W3L150_18_top.txt
692.206	4.33333
690.885	4
689.564	2.66667
688.241	3.33333
686.917	2.66667
685.596	5.33333
684.272	5.66667
682.948	1
681.624	6.66667
680.299	5
678.975	5
677.65	4.33333
676.323	6.66667
674.998	4.33333
673.67	6.66667
672.344	6
671.017	5
669.689	6.33333
668.362	8
667.034	6.33333
665.705	2.33333
664.376	7
663.045	6
661.716	0.333333
660.387	5.66667
659.055	2.66667
657.725	6
656.393	4.66667
655.063	3.33333
653.73	5.33333
652.398	6
651.065	6.33333
649.732	6
648.399	4.66667
647.065	3.33333
645.729	5.66667
644.396	4.66667
643.062	5.66667
641.725	4.33333
640.389	4.33333
639.054	5
637.717	4.33333
636.38	2
635.043	6.33333
633.705	6.33333
632.368	5.33333
631.03	3.33333
629.689	6
628.351	5.66667
627.011	6.33333
625.672	4.66667
624.331	5.33333
622.99	9.33333
621.651	7.66667
620.309	8.66667
618.967	5.33333
617.625	6
616.281	7.66667
614.939	6.33333
613.596	7
612.251	8
610.908	7.66667
609.563	6
608.22	6
606.874	8
605.528	6
604.182	8.66667
602.836	6
601.49	4
600.143	6
598.794	4.66667
597.447	7
596.1	4.66667
594.75	5.66667
593.403	2.66667
592.053	6.33333
590.703	2
589.353	5.33333
588.002	4.66667
586.651	3
585.3	4.33333
583.949	5
582.598	5.66667
581.244	4.66667
579.893	5.66667
578.539	3.66667
577.187	4
575.832	5.66667
574.478	4.33333
573.123	3
571.768	3.33333
570.413	4
569.057	7.33333
567.702	4.33333
566.346	7.33333
564.988	7.33333
563.632	3.66667
562.273	5.33333
560.916	3
559.558	5
558.198	5.66667
556.839	5.33333
555.48	8.33333
554.12	9.33333
552.76	7.33333
551.4	6
550.039	9.33333
548.677	10.3333
547.316	7.33333
545.953	8.66667
544.592	12.3333
543.229	13.3333
541.865	10.3333
540.501	15
539.137	13
537.773	16
536.408	19.3333
535.044	21.6667
533.679	23.3333
532.312	29
530.946	32.3333
529.579	38.6667
528.213	43.3333
526.845	56
525.477	89
524.111	143.333
522.742	276
521.373	594.667
520.002	905
518.633	964
517.263	1085.33
515.894	778.333
514.522	408.333
513.152	193.333
511.779	112
510.407	80
509.034	54
507.663	40.6667
506.29	28.3333
504.917	25.6667
503.543	21.3333
502.167	21
500.793	18
499.419	17.6667
498.043	16
496.668	14.3333
495.291	14.6667
493.916	8.33333
492.539	11.3333
491.161	7.33333
489.783	13.6667
488.405	10.3333
487.027	13.3333
485.649	13.3333
484.268	11.3333
482.889	8
481.51	7.66667
480.129	6.66667
478.75	7.66667
477.368	8
475.986	4.33333
474.604	5.33333
473.221	6.66667
471.839	3.66667
470.456	8
469.073	4.33333
467.69	6.66667
466.307	3.66667
464.921	7.33333
463.537	2.33333
462.151	4
460.767	5.33333
459.38	7.66667
457.993	4.33333
456.606	5.33333
455.219	5.66667
453.832	4.66667
452.444	7.66667
451.056	5
449.668	6.66667
448.278	7
446.89	5.33333
445.499	5.66667
444.11	8
442.719	6
441.327	6
439.936	6.66667
438.544	8.33333
437.152	5
435.76	4
434.367	10.6667
432.975	7.33333
431.579	5
430.186	6
428.791	7.33333
427.398	5.66667
426.002	5
424.606	10
423.211	4.33333
421.815	7.66667
420.418	7.66667
419.021	5.66667
417.624	4.66667
416.225	6.33333
414.827	5.66667
413.43	8.66667
412.029	2
410.631	7.66667
409.231	6.33333
407.83	8.66667
406.429	7
405.03	6.33333
403.629	6
402.227	5
400.825	6
399.421	6
398.019	6.66667
396.617	10
395.212	4.33333
393.809	7
392.404	5.33333
391	4.66667
389.595	5
388.189	3
386.783	6
385.377	9.33333
383.97	7
382.563	7
381.157	7
379.747	7.66667
378.34	3.66667
376.932	8
375.522	7
374.112	8
372.704	7.66667
371.294	4.66667
369.883	5.66667
368.472	4.33333
367.061	5.33333
365.649	2.66667
364.238	4.66667
362.826	6.33333
361.411	7.66667
359.999	5.66667
358.585	10
357.172	5.66667
355.757	7.66667
354.342	5.66667
352.928	4
351.513	5
350.097	6.66667
348.68	8
347.264	4.66667
345.845	8
344.429	3.33333
343.012	8.33333
341.948	7.66667