File: packages/dopes/dopes-2025.1.0.tar.gz/dopes-2025.1.0/examples/data_analysis/raman_silicon/data/514nm_1%_15s/W3L150_14_top.txt
692.206	2
690.885	4
689.564	2
688.241	2.33333
686.917	1
685.596	0.666667
684.272	3
682.948	2
681.624	2
680.299	2
678.975	2
677.65	2.66667
676.323	5
674.998	1.66667
673.67	2.66667
672.344	2
671.017	0.666667
669.689	3
668.362	1.66667
667.034	2.33333
665.705	1.66667
664.376	4
663.045	1.66667
661.716	4
660.387	3.33333
659.055	3.66667
657.725	4
656.393	1.66667
655.063	2.66667
653.73	4
652.398	3.66667
651.065	2
649.732	2.66667
648.399	3.33333
647.065	3.66667
645.729	4.33333
644.396	2.33333
643.062	2.66667
641.725	4.66667
640.389	1.33333
639.054	3
637.717	1.66667
636.38	2
635.043	1.33333
633.705	1.33333
632.368	4.66667
631.03	2
629.689	4.33333
628.351	2.66667
627.011	6.33333
625.672	5.33333
624.331	5.66667
622.99	7.33333
621.651	4.66667
620.309	3.33333
618.967	5.66667
617.625	7.33333
616.281	7.66667
614.939	3.66667
613.596	5.33333
612.251	3.66667
610.908	3.66667
609.563	2
608.22	3.66667
606.874	1.66667
605.528	1.66667
604.182	1
602.836	2.66667
601.49	2.33333
600.143	2.66667
598.794	0.666667
597.447	4
596.1	1
594.75	2.66667
593.403	1.33333
592.053	1.33333
590.703	1.33333
589.353	2
588.002	1.66667
586.651	1.33333
585.3	4
583.949	-1.66667
582.598	2.66667
581.244	1.66667
579.893	0.666667
578.539	3.66667
577.187	-0.333333
575.832	3.33333
574.478	2.66667
573.123	1
571.768	2.66667
570.413	3.33333
569.057	3.66667
567.702	5.66667
566.346	3.33333
564.988	2.33333
563.632	4.33333
562.273	4
560.916	5
559.558	2.33333
558.198	4.33333
556.839	5.33333
555.48	6.66667
554.12	4.33333
552.76	5.66667
551.4	7.33333
550.039	8.33333
548.677	8.33333
547.316	8.66667
545.953	7.66667
544.592	7.66667
543.229	9.33333
541.865	13.3333
540.501	13
539.137	14.3333
537.773	15.3333
536.408	20
535.044	20.3333
533.679	24.3333
532.312	28.3333
530.946	34.3333
529.579	44.6667
528.213	53
526.845	75
525.477	110
524.111	183.667
522.742	361.333
521.373	814
520.002	1250.67
518.633	1226.33
517.263	1048.33
515.894	589.333
514.522	272.333
513.152	152.333
511.779	91.3333
510.407	63.6667
509.034	46.3333
507.663	39
506.29	31.3333
504.917	25.3333
503.543	19
502.167	18.3333
500.793	10.6667
499.419	9.66667
498.043	7.66667
496.668	12.3333
495.291	9
493.916	7.66667
492.539	8.33333
491.161	6.33333
489.783	7
488.405	4.66667
487.027	9
485.649	5.33333
484.268	6
482.889	6.33333
481.51	7
480.129	5.66667
478.75	3.66667
477.368	5.66667
475.986	3
474.604	4.33333
473.221	4.66667
471.839	2.33333
470.456	3.66667
469.073	4.66667
467.69	4.33333
466.307	5.33333
464.921	3
463.537	3.66667
462.151	2.66667
460.767	3.66667
459.38	2.33333
457.993	2.33333
456.606	2
455.219	3.33333
453.832	2.33333
452.444	4
451.056	1.66667
449.668	1.33333
448.278	1.66667
446.89	2.66667
445.499	5.66667
444.11	4.66667
442.719	5.33333
441.327	3
439.936	5.66667
438.544	1.66667
437.152	6.33333
435.76	4
434.367	7.66667
432.975	3.66667
431.579	3.66667
430.186	2.33333
428.791	6
427.398	5.66667
426.002	4.66667
424.606	3.33333
423.211	3
421.815	5.66667
420.418	1
419.021	6.66667
417.624	3
416.225	4
414.827	5.66667
413.43	4.33333
412.029	4.66667
410.631	3.66667
409.231	5
407.83	4
406.429	4.66667
405.03	4
403.629	3.66667
402.227	2
400.825	4
399.421	3.33333
398.019	7
396.617	3.33333
395.212	2.66667
393.809	3.66667
392.404	4.33333
391	4.33333
389.595	1
388.189	4
386.783	3
385.377	6.33333
383.97	3.33333
382.563	4
381.157	3.33333
379.747	1.66667
378.34	4.33333
376.932	4
375.522	2.66667
374.112	4.33333
372.704	3
371.294	2.66667
369.883	3
368.472	4.33333
367.061	3.66667
365.649	2
364.238	6.33333
362.826	4.66667
361.411	6
359.999	7
358.585	3
357.172	6.66667
355.757	4
354.342	3.33333
352.928	2.33333
351.513	5.33333
350.097	5.66667
348.68	6.66667
347.264	4.33333
345.845	4
344.429	7
343.012	7
341.948	7.33333