File: packages/dopes/dopes-2025.1.0.tar.gz/dopes-2025.1.0/examples/data_analysis/raman_silicon/data/514nm_1%_15s/W3L150_12_top.txt
692.206	-0.666667
690.885	3
689.564	1.33333
688.241	0.333333
686.917	4.66667
685.596	2.33333
684.272	2
682.948	3.33333
681.624	1.33333
680.299	0.333333
678.975	1.33333
677.65	0.666667
676.323	3.33333
674.998	1.66667
673.67	1
672.344	3.66667
671.017	4
669.689	4.66667
668.362	1.66667
667.034	3
665.705	1.33333
664.376	3.33333
663.045	5
661.716	0.666667
660.387	4
659.055	3.33333
657.725	3
656.393	2.66667
655.063	1.33333
653.73	3
652.398	0.666667
651.065	4
649.732	1.66667
648.399	2.33333
647.065	2.33333
645.729	-0.666667
644.396	4.33333
643.062	0.666667
641.725	2.66667
640.389	-0.666667
639.054	2.33333
637.717	2
636.38	2.33333
635.043	0.333333
633.705	3.33333
632.368	3
631.03	1.66667
629.689	0.666667
628.351	2.66667
627.011	4.33333
625.672	3
624.331	3
622.99	4.33333
621.651	6.33333
620.309	6
618.967	5.66667
617.625	7
616.281	4.33333
614.939	2.33333
613.596	3.33333
612.251	4
610.908	2.66667
609.563	3.66667
608.22	1.33333
606.874	2.66667
605.528	1
604.182	2.66667
602.836	1.33333
601.49	2.33333
600.143	3.66667
598.794	0.666667
597.447	1.66667
596.1	1.66667
594.75	3
593.403	1.33333
592.053	1.66667
590.703	2
589.353	-0.666667
588.002	2.66667
586.651	2.66667
585.3	2
583.949	2.33333
582.598	3.33333
581.244	1
579.893	0
578.539	2.66667
577.187	0.333333
575.832	0.666667
574.478	1.66667
573.123	2
571.768	2
570.413	2.66667
569.057	2
567.702	2.33333
566.346	2
564.988	1.66667
563.632	2.33333
562.273	4.33333
560.916	2.33333
559.558	2
558.198	3.66667
556.839	1
555.48	4.33333
554.12	5.33333
552.76	6.66667
551.4	3.66667
550.039	3.33333
548.677	4.33333
547.316	4.33333
545.953	8.66667
544.592	6.33333
543.229	10.6667
541.865	10.6667
540.501	12.6667
539.137	8.66667
537.773	13.3333
536.408	15.6667
535.044	23.3333
533.679	18.6667
532.312	24.6667
530.946	32.3333
529.579	40.3333
528.213	46.6667
526.845	71.3333
525.477	105.667
524.111	171.333
522.742	371
521.373	833
520.002	1222.67
518.633	1159.67
517.263	762
515.894	360.333
514.522	171
513.152	104.667
511.779	71.3333
510.407	48.3333
509.034	38
507.663	26
506.29	25
504.917	12.3333
503.543	20
502.167	13.3333
500.793	11.3333
499.419	10.3333
498.043	11.6667
496.668	11
495.291	9.66667
493.916	5.33333
492.539	8
491.161	3.33333
489.783	5.66667
488.405	8.66667
487.027	6.66667
485.649	4.33333
484.268	6.33333
482.889	3
481.51	6
480.129	2.33333
478.75	3.33333
477.368	4
475.986	3.66667
474.604	3
473.221	2.66667
471.839	0
470.456	4
469.073	2
467.69	3
466.307	3.66667
464.921	3.33333
463.537	2
462.151	1
460.767	1.66667
459.38	1.33333
457.993	2.33333
456.606	2.66667
455.219	2.33333
453.832	3
452.444	2
451.056	2.66667
449.668	4.33333
448.278	5
446.89	4.33333
445.499	1.66667
444.11	3.33333
442.719	4.66667
441.327	4
439.936	2.66667
438.544	5
437.152	1.66667
435.76	4.33333
434.367	4.66667
432.975	6.33333
431.579	3
430.186	5.33333
428.791	4.33333
427.398	5.66667
426.002	2.66667
424.606	3.33333
423.211	3.33333
421.815	4.33333
420.418	4.66667
419.021	2.66667
417.624	4
416.225	6
414.827	3.66667
413.43	1
412.029	1.66667
410.631	2.33333
409.231	1
407.83	4.33333
406.429	3
405.03	3.66667
403.629	4
402.227	3
400.825	2.33333
399.421	3
398.019	0.333333
396.617	1.66667
395.212	3
393.809	4.66667
392.404	2.66667
391	3
389.595	3.66667
388.189	2.33333
386.783	1.33333
385.377	3.33333
383.97	2
382.563	3.33333
381.157	3.66667
379.747	2
378.34	4
376.932	4.66667
375.522	4
374.112	3
372.704	3
371.294	1.66667
369.883	4.33333
368.472	4
367.061	3
365.649	3.33333
364.238	5.33333
362.826	2.66667
361.411	2
359.999	7.33333
358.585	3.33333
357.172	5.33333
355.757	4.33333
354.342	4.66667
352.928	5.33333
351.513	5.66667
350.097	5
348.68	4
347.264	2
345.845	5.33333
344.429	5.66667
343.012	7
341.948	2