File: packages/dopes/dopes-2025.1.0.tar.gz/dopes-2025.1.0/examples/data_analysis/raman_silicon/data/514nm_1%_15s/W3L150_20_bottom.txt
692.206	4
690.885	2.66667
689.564	2
688.241	0.666667
686.917	2.33333
685.596	3
684.272	6
682.948	1.33333
681.624	-0.333333
680.299	2
678.975	1.33333
677.65	4.66667
676.323	2.33333
674.998	4.66667
673.67	2.33333
672.344	3.66667
671.017	4
669.689	3.33333
668.362	3.33333
667.034	2.33333
665.705	5.33333
664.376	3.66667
663.045	1
661.716	3.33333
660.387	4
659.055	2.33333
657.725	3
656.393	3.66667
655.063	2.66667
653.73	2.66667
652.398	2.33333
651.065	4.66667
649.732	3.66667
648.399	3.33333
647.065	3.33333
645.729	4.66667
644.396	5.33333
643.062	5
641.725	2.33333
640.389	5.33333
639.054	3.66667
637.717	3.33333
636.38	3.66667
635.043	2.33333
633.705	3.66667
632.368	4.33333
631.03	7.33333
629.689	1.66667
628.351	3
627.011	3
625.672	0.666667
624.331	4.33333
622.99	3
621.651	8.33333
620.309	4
618.967	5.33333
617.625	6.33333
616.281	6
614.939	3
613.596	6
612.251	6
610.908	6.33333
609.563	5.66667
608.22	2
606.874	5
605.528	2.33333
604.182	2.66667
602.836	2.33333
601.49	1.33333
600.143	6.66667
598.794	1.66667
597.447	3
596.1	5.33333
594.75	3
593.403	2.33333
592.053	2.66667
590.703	-0.666667
589.353	0.666667
588.002	1.66667
586.651	3
585.3	2.33333
583.949	1.66667
582.598	2.33333
581.244	3
579.893	2.66667
578.539	5
577.187	1.66667
575.832	4
574.478	2.66667
573.123	4.33333
571.768	2
570.413	1
569.057	6.66667
567.702	4.66667
566.346	6
564.988	4.33333
563.632	1.66667
562.273	2
560.916	3.66667
559.558	6.66667
558.198	8.33333
556.839	7
555.48	5.33333
554.12	6.33333
552.76	8
551.4	6.66667
550.039	5.66667
548.677	7
547.316	9.66667
545.953	11.3333
544.592	10.3333
543.229	13.3333
541.865	12
540.501	13.6667
539.137	16
537.773	15.6667
536.408	15.6667
535.044	19
533.679	25
532.312	25
530.946	33.6667
529.579	38.3333
528.213	46
526.845	58.6667
525.477	91.3333
524.111	150.333
522.742	284.667
521.373	656
520.002	1006.33
518.633	942
517.263	931.333
515.894	977.667
514.522	618.667
513.152	297
511.779	150.667
510.407	87.3333
509.034	67
507.663	46
506.29	34.6667
504.917	27.3333
503.543	22
502.167	17.6667
500.793	18.6667
499.419	13
498.043	13.3333
496.668	14
495.291	10
493.916	10
492.539	11.3333
491.161	10.6667
489.783	6.33333
488.405	8.66667
487.027	6.66667
485.649	9.66667
484.268	6.66667
482.889	7
481.51	6.33333
480.129	5
478.75	7.66667
477.368	7.33333
475.986	4
474.604	9
473.221	6
471.839	6.33333
470.456	7.33333
469.073	5.33333
467.69	4
466.307	3.66667
464.921	4.66667
463.537	-0.333333
462.151	6
460.767	1.33333
459.38	2
457.993	5.33333
456.606	1
455.219	3.66667
453.832	3.66667
452.444	6.66667
451.056	3
449.668	4.33333
448.278	0
446.89	4.66667
445.499	6
444.11	4
442.719	4.66667
441.327	4.33333
439.936	5.33333
438.544	6.66667
437.152	5.66667
435.76	5.33333
434.367	6.33333
432.975	6
431.579	4.66667
430.186	2.66667
428.791	5
427.398	4
426.002	8
424.606	6
423.211	2
421.815	5
420.418	6
419.021	6
417.624	5.66667
416.225	3.33333
414.827	2.33333
413.43	2.33333
412.029	1.33333
410.631	5
409.231	2.33333
407.83	3.33333
406.429	5.66667
405.03	5
403.629	5.66667
402.227	4
400.825	3.66667
399.421	7
398.019	7.66667
396.617	3
395.212	8.33333
393.809	2
392.404	5.66667
391	4.33333
389.595	4.66667
388.189	4
386.783	5.33333
385.377	1
383.97	5.33333
382.563	4.66667
381.157	5.66667
379.747	5.33333
378.34	4.66667
376.932	4.33333
375.522	4.66667
374.112	3.33333
372.704	3.66667
371.294	5
369.883	5.33333
368.472	3.33333
367.061	7.33333
365.649	5.66667
364.238	5.66667
362.826	3.66667
361.411	5.33333
359.999	3
358.585	6
357.172	6
355.757	5.33333
354.342	4.33333
352.928	4.33333
351.513	6.66667
350.097	6.66667
348.68	6.33333
347.264	7.66667
345.845	5.33333
344.429	3.66667
343.012	4.66667
341.948	5.66667