File: packages/dopes/dopes-2025.1.0.tar.gz/dopes-2025.1.0/examples/data_analysis/raman_silicon/data/514nm_1%_15s/W3L150_16_top.txt
692.206	0.666667
690.885	2
689.564	2.33333
688.241	0.666667
686.917	1
685.596	1
684.272	1
682.948	2.66667
681.624	4
680.299	2
678.975	1.66667
677.65	2.66667
676.323	1.66667
674.998	2.66667
673.67	2
672.344	2
671.017	2
669.689	4.66667
668.362	3.66667
667.034	0.666667
665.705	5.66667
664.376	4
663.045	1.33333
661.716	2
660.387	2
659.055	4
657.725	3.66667
656.393	1.66667
655.063	4
653.73	4.66667
652.398	1.66667
651.065	2.66667
649.732	2.66667
648.399	3.33333
647.065	4
645.729	2.33333
644.396	-0.333333
643.062	3.33333
641.725	2
640.389	4
639.054	-0.666667
637.717	3
636.38	2.33333
635.043	1.33333
633.705	5.66667
632.368	2
631.03	3.66667
629.689	1.33333
628.351	2.66667
627.011	3
625.672	4.66667
624.331	5.33333
622.99	4.66667
621.651	4.33333
620.309	3.33333
618.967	3.33333
617.625	6.66667
616.281	4.66667
614.939	1
613.596	5.66667
612.251	1.66667
610.908	3.66667
609.563	3.66667
608.22	4
606.874	4.33333
605.528	4
604.182	3.33333
602.836	1.33333
601.49	4.33333
600.143	5
598.794	3.33333
597.447	0.333333
596.1	3.33333
594.75	3.66667
593.403	3
592.053	1.66667
590.703	3.66667
589.353	2
588.002	4.33333
586.651	1.66667
585.3	3
583.949	3
582.598	1.33333
581.244	3
579.893	4
578.539	1.66667
577.187	4.33333
575.832	2.33333
574.478	3.33333
573.123	1.33333
571.768	4.66667
570.413	3.33333
569.057	2.33333
567.702	4
566.346	3
564.988	6.33333
563.632	0.666667
562.273	4.66667
560.916	4.33333
559.558	6
558.198	5.66667
556.839	5
555.48	6.33333
554.12	6
552.76	6.33333
551.4	9.66667
550.039	8
548.677	7.66667
547.316	8.66667
545.953	9.66667
544.592	13
543.229	16.3333
541.865	9
540.501	18
539.137	19.6667
537.773	18
536.408	20.3333
535.044	20
533.679	33
532.312	36.6667
530.946	42
529.579	53.6667
528.213	54.3333
526.845	82
525.477	124.333
524.111	204.667
522.742	400
521.373	921
520.002	1470.67
518.633	1326
517.263	1435
515.894	950
514.522	444.667
513.152	226.333
511.779	127.333
510.407	83.6667
509.034	53.6667
507.663	53
506.29	39.3333
504.917	34.3333
503.543	30.3333
502.167	20.6667
500.793	20
499.419	17.6667
498.043	19
496.668	8.33333
495.291	11.6667
493.916	11
492.539	10.6667
491.161	9.66667
489.783	9
488.405	9.33333
487.027	9.33333
485.649	6.33333
484.268	4.66667
482.889	6
481.51	7
480.129	6
478.75	2.66667
477.368	7
475.986	3.33333
474.604	5.66667
473.221	3.66667
471.839	4.33333
470.456	4.66667
469.073	4.66667
467.69	3
466.307	1.66667
464.921	2.33333
463.537	1
462.151	5
460.767	5
459.38	3
457.993	5
456.606	4
455.219	4.66667
453.832	3.66667
452.444	4.33333
451.056	1
449.668	2
448.278	3
446.89	7
445.499	4
444.11	3.33333
442.719	2.33333
441.327	1.33333
439.936	4.33333
438.544	4.66667
437.152	4.33333
435.76	7.33333
434.367	5.66667
432.975	6.66667
431.579	3.66667
430.186	2.66667
428.791	7.33333
427.398	3.33333
426.002	3.66667
424.606	5.66667
423.211	4.33333
421.815	4
420.418	3
419.021	1.66667
417.624	3.66667
416.225	3.33333
414.827	3.33333
413.43	3.33333
412.029	3.66667
410.631	2
409.231	4.66667
407.83	2.33333
406.429	5.33333
405.03	2.33333
403.629	2.33333
402.227	3.66667
400.825	2
399.421	5.66667
398.019	4
396.617	4
395.212	1.66667
393.809	6.33333
392.404	5
391	4.66667
389.595	4.66667
388.189	6
386.783	8
385.377	4.33333
383.97	3.66667
382.563	2.33333
381.157	3.33333
379.747	6
378.34	3.33333
376.932	4.33333
375.522	7.66667
374.112	4
372.704	5.33333
371.294	2.33333
369.883	6
368.472	0.333333
367.061	1.33333
365.649	5
364.238	6
362.826	5
361.411	3
359.999	6
358.585	7
357.172	7.66667
355.757	7
354.342	7
352.928	8.33333
351.513	4
350.097	5.66667
348.68	7.66667
347.264	6.33333
345.845	4
344.429	3.33333
343.012	3.66667
341.948	4