File: packages/dopes/dopes-2025.1.0.tar.gz/dopes-2025.1.0/examples/data_analysis/raman_silicon/data/514nm_1%_15s/W3L150_22_top.txt
692.206	2
690.885	1.66667
689.564	3.66667
688.241	2.66667
686.917	5
685.596	1
684.272	5.33333
682.948	5
681.624	9
680.299	4.66667
678.975	6.66667
677.65	5.33333
676.323	5.66667
674.998	6
673.67	5.33333
672.344	5.33333
671.017	3
669.689	5
668.362	5
667.034	4.33333
665.705	6
664.376	4
663.045	5.33333
661.716	4.33333
660.387	6
659.055	6
657.725	4.66667
656.393	5.66667
655.063	6
653.73	8
652.398	6
651.065	3.33333
649.732	5.33333
648.399	4
647.065	4.66667
645.729	6.33333
644.396	5.33333
643.062	4
641.725	6.33333
640.389	5.33333
639.054	2.33333
637.717	3
636.38	8.33333
635.043	3.66667
633.705	3
632.368	5.33333
631.03	4
629.689	3.33333
628.351	5
627.011	6
625.672	5
624.331	7
622.99	3.33333
621.651	6
620.309	6.33333
618.967	3
617.625	7.66667
616.281	9
614.939	7
613.596	5
612.251	5.33333
610.908	6
609.563	7.33333
608.22	6
606.874	5.33333
605.528	3.66667
604.182	7.66667
602.836	4.33333
601.49	6.33333
600.143	6
598.794	6
597.447	5.66667
596.1	4.33333
594.75	1.66667
593.403	3
592.053	4
590.703	4.33333
589.353	7.66667
588.002	2.66667
586.651	6.66667
585.3	3.66667
583.949	6.33333
582.598	3
581.244	3.66667
579.893	5
578.539	4.66667
577.187	2.33333
575.832	3.66667
574.478	5
573.123	4.33333
571.768	4
570.413	7
569.057	2.33333
567.702	3.66667
566.346	3.66667
564.988	3.66667
563.632	6.66667
562.273	7
560.916	8
559.558	6
558.198	6.66667
556.839	7.33333
555.48	4.33333
554.12	10.6667
552.76	7.66667
551.4	5.33333
550.039	7.66667
548.677	8
547.316	9.33333
545.953	6.66667
544.592	12
543.229	13.6667
541.865	11
540.501	12.3333
539.137	14.3333
537.773	15.6667
536.408	16
535.044	12.3333
533.679	15.3333
532.312	28.3333
530.946	25.3333
529.579	32.3333
528.213	42.6667
526.845	57.6667
525.477	88
524.111	142.667
522.742	286.333
521.373	621
520.002	911.333
518.633	815.667
517.263	659.667
515.894	764
514.522	587
513.152	299
511.779	160.667
510.407	87.6667
509.034	63.6667
507.663	44.6667
506.29	32
504.917	23.3333
503.543	21
502.167	23.3333
500.793	15
499.419	13
498.043	17.6667
496.668	15.6667
495.291	9.33333
493.916	11.3333
492.539	13.3333
491.161	12.3333
489.783	6.33333
488.405	9.66667
487.027	10.6667
485.649	8.66667
484.268	8
482.889	9
481.51	7.66667
480.129	8.33333
478.75	5
477.368	7.33333
475.986	5
474.604	5.66667
473.221	6.33333
471.839	4
470.456	4.66667
469.073	7.33333
467.69	5.33333
466.307	2
464.921	5.33333
463.537	3.66667
462.151	4.66667
460.767	1.33333
459.38	4
457.993	4.33333
456.606	4
455.219	5.33333
453.832	5.33333
452.444	6
451.056	2.66667
449.668	7
448.278	6
446.89	6.66667
445.499	9.33333
444.11	5
442.719	9.33333
441.327	3.66667
439.936	8.33333
438.544	7
437.152	5
435.76	5.66667
434.367	8.66667
432.975	7
431.579	10
430.186	5.66667
428.791	7
427.398	7
426.002	7.33333
424.606	5
423.211	5.66667
421.815	5.66667
420.418	8
419.021	4.66667
417.624	5.66667
416.225	9.66667
414.827	6
413.43	6
412.029	5
410.631	8
409.231	7
407.83	3.66667
406.429	4.66667
405.03	6.66667
403.629	6
402.227	5.66667
400.825	5.33333
399.421	6.33333
398.019	7
396.617	8.33333
395.212	5
393.809	4.66667
392.404	4
391	3.66667
389.595	6.66667
388.189	2.66667
386.783	7
385.377	8.33333
383.97	6.66667
382.563	8.66667
381.157	6.33333
379.747	4.66667
378.34	4.33333
376.932	6.33333
375.522	4
374.112	7.33333
372.704	6
371.294	5
369.883	8.33333
368.472	4.66667
367.061	4.66667
365.649	8.33333
364.238	7.33333
362.826	4.33333
361.411	7
359.999	6.66667
358.585	5
357.172	5.66667
355.757	7
354.342	8.66667
352.928	6.33333
351.513	5
350.097	8.66667
348.68	4.66667
347.264	3
345.845	6.33333
344.429	6.66667
343.012	8
341.948	7.66667