File: packages/dopes/dopes-2025.1.0.tar.gz/dopes-2025.1.0/examples/data_analysis/raman_silicon/data/514nm_1%_15s/W3L150_1_top.txt
692.206	8
690.885	10.6667
689.564	9.33333
688.241	7.33333
686.917	5.33333
685.596	10.3333
684.272	10.6667
682.948	11
681.624	5
680.299	12.3333
678.975	6.66667
677.65	6.66667
676.323	7.66667
674.998	10.6667
673.67	8.66667
672.344	8
671.017	7
669.689	11
668.362	6.33333
667.034	10.3333
665.705	11
664.376	9.33333
663.045	6
661.716	12
660.387	7.66667
659.055	9.33333
657.725	8
656.393	9.66667
655.063	11.3333
653.73	6.66667
652.398	3.66667
651.065	8.33333
649.732	6.33333
648.399	6.66667
647.065	5.66667
645.729	5.33333
644.396	9.66667
643.062	9
641.725	9.66667
640.389	10.3333
639.054	9.66667
637.717	5
636.38	7.66667
635.043	9.66667
633.705	9
632.368	5.33333
631.03	8
629.689	9.66667
628.351	7
627.011	10
625.672	10.3333
624.331	8
622.99	8.66667
621.651	7.33333
620.309	12.6667
618.967	10.3333
617.625	7.33333
616.281	11.3333
614.939	7
613.596	11
612.251	10
610.908	10.3333
609.563	6.33333
608.22	10.3333
606.874	8.66667
605.528	10.6667
604.182	10
602.836	9
601.49	8.66667
600.143	10
598.794	8
597.447	7.66667
596.1	7.66667
594.75	10.3333
593.403	9
592.053	7
590.703	10.3333
589.353	6.33333
588.002	10
586.651	7.33333
585.3	6.66667
583.949	7.33333
582.598	6.66667
581.244	6
579.893	7.66667
578.539	8.33333
577.187	8.33333
575.832	8.66667
574.478	5.33333
573.123	8.66667
571.768	6
570.413	8
569.057	7
567.702	10.3333
566.346	7.66667
564.988	9.33333
563.632	8.33333
562.273	11
560.916	9
559.558	7
558.198	10
556.839	7
555.48	10.3333
554.12	11.3333
552.76	12
551.4	11.3333
550.039	9.33333
548.677	11
547.316	9.66667
545.953	10.6667
544.592	14.6667
543.229	11.3333
541.865	15.6667
540.501	12
539.137	12.6667
537.773	18.3333
536.408	15.3333
535.044	16.6667
533.679	20.3333
532.312	26.3333
530.946	27.3333
529.579	30.3333
528.213	47
526.845	66.3333
525.477	93
524.111	167.333
522.742	331.667
521.373	750.667
520.002	1006.33
518.633	579.667
517.263	263
515.894	131
514.522	83.3333
513.152	50
511.779	43.3333
510.407	36
509.034	24
507.663	21.3333
506.29	21
504.917	15
503.543	15
502.167	15
500.793	16
499.419	13
498.043	12.3333
496.668	19
495.291	9.66667
493.916	13
492.539	12.3333
491.161	14
489.783	12.3333
488.405	13.6667
487.027	9
485.649	8.33333
484.268	10
482.889	10
481.51	4.33333
480.129	9.33333
478.75	10
477.368	10.6667
475.986	8.66667
474.604	5.66667
473.221	6.33333
471.839	10.3333
470.456	9
469.073	8.33333
467.69	8.66667
466.307	6.33333
464.921	6.33333
463.537	5.33333
462.151	5
460.767	7
459.38	6
457.993	11.3333
456.606	5.33333
455.219	9.33333
453.832	3.66667
452.444	7
451.056	6.33333
449.668	5.33333
448.278	6
446.89	9.33333
445.499	5.33333
444.11	8.33333
442.719	7
441.327	5.66667
439.936	9
438.544	6.66667
437.152	8.66667
435.76	9.33333
434.367	8
432.975	8.33333
431.579	9
430.186	8
428.791	6.66667
427.398	9.66667
426.002	8.66667
424.606	10
423.211	6.33333
421.815	6
420.418	10.3333
419.021	8.33333
417.624	10
416.225	5.66667
414.827	8.33333
413.43	4.66667
412.029	7.33333
410.631	6.66667
409.231	10
407.83	7
406.429	7.33333
405.03	9.33333
403.629	5.33333
402.227	7
400.825	7.33333
399.421	7
398.019	5
396.617	5.66667
395.212	5.33333
393.809	7
392.404	13
391	3.66667
389.595	6
388.189	2.66667
386.783	5.33333
385.377	7.66667
383.97	6.66667
382.563	4.66667
381.157	7.33333
379.747	6.33333
378.34	3
376.932	8
375.522	8.33333
374.112	6
372.704	7.33333
371.294	6.66667
369.883	7
368.472	7.66667
367.061	6.66667
365.649	7.66667
364.238	2
362.826	6
361.411	6
359.999	10.6667
358.585	6.33333
357.172	7.66667
355.757	7.33333
354.342	8.33333
352.928	6.66667
351.513	6
350.097	6
348.68	6
347.264	9.66667
345.845	8.66667
344.429	9.66667
343.012	8.66667
341.948	11