File: packages/dopes/dopes-2025.1.0.tar.gz/dopes-2025.1.0/examples/data_analysis/raman_silicon/data/514nm_1%_15s/W3L150_9_bottom.txt
692.206	0.666667
690.885	0
689.564	0
688.241	-0.666667
686.917	-1
685.596	0.666667
684.272	1
682.948	-1.66667
681.624	-0.333333
680.299	0.333333
678.975	1.33333
677.65	-0.333333
676.323	1
674.998	2.33333
673.67	1
672.344	-0.333333
671.017	0.666667
669.689	0
668.362	0.333333
667.034	1
665.705	1
664.376	0.333333
663.045	1.33333
661.716	0.666667
660.387	4
659.055	2
657.725	2
656.393	0.333333
655.063	0.666667
653.73	2.33333
652.398	1.66667
651.065	-0.666667
649.732	1
648.399	-0.666667
647.065	0.666667
645.729	-0.333333
644.396	3
643.062	2
641.725	2
640.389	-0.666667
639.054	1.66667
637.717	4.33333
636.38	2
635.043	1.33333
633.705	-2.33333
632.368	0.333333
631.03	3.33333
629.689	1
628.351	4.33333
627.011	2.33333
625.672	2
624.331	4.33333
622.99	3.33333
621.651	2
620.309	4.33333
618.967	0
617.625	2.66667
616.281	4.66667
614.939	3
613.596	3.33333
612.251	2
610.908	2.33333
609.563	-0.666667
608.22	2
606.874	4
605.528	3.33333
604.182	3
602.836	0
601.49	-1.66667
600.143	-0.333333
598.794	0.666667
597.447	1.33333
596.1	0.666667
594.75	-0.333333
593.403	0.333333
592.053	1.66667
590.703	-1
589.353	1.66667
588.002	0.333333
586.651	1.66667
585.3	0
583.949	2
582.598	1
581.244	-1.33333
579.893	3.33333
578.539	0
577.187	1.66667
575.832	1.66667
574.478	1.33333
573.123	-0.666667
571.768	2.66667
570.413	1
569.057	4.66667
567.702	1.66667
566.346	3
564.988	3
563.632	3.33333
562.273	4.66667
560.916	3.66667
559.558	3.33333
558.198	4.33333
556.839	0.666667
555.48	4.66667
554.12	1.33333
552.76	2.33333
551.4	4.33333
550.039	5
548.677	5.33333
547.316	8.33333
545.953	9
544.592	9
543.229	10
541.865	10
540.501	14
539.137	12.3333
537.773	15.6667
536.408	16.6667
535.044	18.3333
533.679	22
532.312	27.3333
530.946	30.6667
529.579	40.3333
528.213	58.3333
526.845	77
525.477	114.667
524.111	212.333
522.742	417.667
521.373	963.333
520.002	1595.67
518.633	1386.67
517.263	658
515.894	298.333
514.522	154
513.152	96
511.779	70.3333
510.407	47.3333
509.034	39.3333
507.663	27.3333
506.29	24.3333
504.917	15.6667
503.543	14
502.167	21
500.793	9.33333
499.419	12.3333
498.043	8.66667
496.668	6.33333
495.291	10
493.916	10.3333
492.539	6.33333
491.161	7
489.783	3.33333
488.405	5
487.027	5.66667
485.649	7
484.268	6
482.889	4.66667
481.51	4.66667
480.129	3
478.75	3.33333
477.368	4.33333
475.986	4
474.604	2.33333
473.221	3.33333
471.839	6.33333
470.456	1
469.073	5
467.69	5.33333
466.307	4
464.921	0.666667
463.537	0.333333
462.151	1.66667
460.767	2.66667
459.38	2.66667
457.993	3
456.606	1
455.219	2
453.832	2
452.444	0.666667
451.056	3
449.668	3
448.278	2.33333
446.89	-1
445.499	2.66667
444.11	1.66667
442.719	2
441.327	2
439.936	-0.333333
438.544	2.33333
437.152	2
435.76	0
434.367	1.66667
432.975	3.66667
431.579	4.33333
430.186	1.66667
428.791	1.66667
427.398	4
426.002	0.666667
424.606	2.33333
423.211	2.33333
421.815	4.33333
420.418	3.66667
419.021	2.33333
417.624	2.33333
416.225	4
414.827	4
413.43	2.33333
412.029	4
410.631	5
409.231	4
407.83	3.33333
406.429	2.66667
405.03	-0.333333
403.629	3.33333
402.227	0.666667
400.825	1.33333
399.421	3.33333
398.019	3
396.617	2.33333
395.212	-0.333333
393.809	1.66667
392.404	0.666667
391	5.33333
389.595	2.33333
388.189	3
386.783	1.33333
385.377	2.33333
383.97	0.666667
382.563	4.66667
381.157	0.666667
379.747	3.33333
378.34	4.33333
376.932	2
375.522	3.33333
374.112	3.33333
372.704	3.33333
371.294	0
369.883	2.33333
368.472	0.666667
367.061	3.66667
365.649	1.33333
364.238	2.66667
362.826	4
361.411	1.66667
359.999	5.33333
358.585	6.33333
357.172	1
355.757	2
354.342	1.33333
352.928	2
351.513	3
350.097	6.33333
348.68	4.66667
347.264	3
345.845	2.66667
344.429	5.33333
343.012	4
341.948	3.33333