File: packages/dopes/dopes-2025.1.0.tar.gz/dopes-2025.1.0/examples/data_analysis/raman_silicon/data/514nm_1%_15s/W3L150_21_bottom.txt
692.206	0.666667
690.885	1.33333
689.564	2.66667
688.241	2
686.917	1
685.596	1.66667
684.272	2.66667
682.948	2.33333
681.624	-1.66667
680.299	2
678.975	4
677.65	2
676.323	3.66667
674.998	5.33333
673.67	4.66667
672.344	3
671.017	2.66667
669.689	1.66667
668.362	5
667.034	5
665.705	0.666667
664.376	3.33333
663.045	3.33333
661.716	1.33333
660.387	3
659.055	1.33333
657.725	2.33333
656.393	2
655.063	2.66667
653.73	1.66667
652.398	1.66667
651.065	1.33333
649.732	4
648.399	4
647.065	2.33333
645.729	2.33333
644.396	2.33333
643.062	0.333333
641.725	2.66667
640.389	1.66667
639.054	4.33333
637.717	3.33333
636.38	4.33333
635.043	6.33333
633.705	3
632.368	2
631.03	5.33333
629.689	2.66667
628.351	-1
627.011	4
625.672	3
624.331	3.66667
622.99	2.66667
621.651	1
620.309	4.66667
618.967	4
617.625	3
616.281	4.33333
614.939	3
613.596	2.66667
612.251	1
610.908	4
609.563	3
608.22	2.66667
606.874	4
605.528	4.33333
604.182	4.66667
602.836	3.66667
601.49	1.33333
600.143	3
598.794	2.66667
597.447	3.66667
596.1	4
594.75	0.333333
593.403	4
592.053	-0.666667
590.703	1.66667
589.353	2
588.002	2.66667
586.651	2
585.3	2.33333
583.949	1.66667
582.598	3.33333
581.244	1.66667
579.893	2
578.539	2.33333
577.187	2.33333
575.832	3
574.478	0.666667
573.123	3
571.768	1.33333
570.413	1.33333
569.057	2.66667
567.702	6
566.346	0.333333
564.988	0.666667
563.632	1.66667
562.273	6.33333
560.916	0
559.558	1
558.198	5
556.839	2
555.48	4.33333
554.12	4.66667
552.76	5
551.4	5
550.039	9.33333
548.677	5.66667
547.316	4.66667
545.953	7.33333
544.592	7
543.229	10
541.865	10.6667
540.501	10
539.137	11
537.773	12
536.408	13
535.044	18.3333
533.679	19.3333
532.312	21
530.946	24.3333
529.579	25.6667
528.213	38
526.845	51.3333
525.477	68
524.111	107
522.742	228.667
521.373	446.333
520.002	725
518.633	695.333
517.263	761.333
515.894	797.667
514.522	536
513.152	266.667
511.779	123.333
510.407	78.6667
509.034	51.3333
507.663	40.6667
506.29	26.6667
504.917	23
503.543	21
502.167	17.3333
500.793	15.6667
499.419	16.6667
498.043	5.66667
496.668	11.6667
495.291	9
493.916	8
492.539	8.66667
491.161	4.66667
489.783	8
488.405	8.33333
487.027	5.66667
485.649	4.66667
484.268	5
482.889	5.33333
481.51	8.33333
480.129	3.66667
478.75	5.33333
477.368	3.66667
475.986	2.66667
474.604	6.33333
473.221	4.66667
471.839	5
470.456	3.66667
469.073	5
467.69	2.33333
466.307	4
464.921	4.33333
463.537	3
462.151	2
460.767	1
459.38	3
457.993	-0.666667
456.606	3
455.219	6
453.832	5.33333
452.444	3.33333
451.056	3.66667
449.668	4
448.278	1.66667
446.89	2
445.499	2
444.11	4
442.719	3.33333
441.327	1.33333
439.936	4
438.544	2.33333
437.152	5
435.76	2.33333
434.367	0.666667
432.975	2
431.579	4
430.186	2.66667
428.791	4.33333
427.398	5.33333
426.002	3.66667
424.606	3.66667
423.211	4.66667
421.815	3.66667
420.418	4
419.021	3.33333
417.624	5.33333
416.225	3.66667
414.827	3
413.43	3.33333
412.029	3
410.631	2
409.231	5
407.83	5
406.429	3
405.03	3.33333
403.629	3.33333
402.227	3
400.825	2
399.421	4.66667
398.019	5
396.617	5.33333
395.212	1.66667
393.809	5.66667
392.404	3
391	4
389.595	1
388.189	4
386.783	2.66667
385.377	4
383.97	4.33333
382.563	4.66667
381.157	4.33333
379.747	2
378.34	4
376.932	2.33333
375.522	4.66667
374.112	3
372.704	3.66667
371.294	3.33333
369.883	3.66667
368.472	4.33333
367.061	5.33333
365.649	4
364.238	4
362.826	4.33333
361.411	7
359.999	5.33333
358.585	6.66667
357.172	6.33333
355.757	4.33333
354.342	4.33333
352.928	4.66667
351.513	5.66667
350.097	4
348.68	2.33333
347.264	4.33333
345.845	2.66667
344.429	3.33333
343.012	5
341.948	4.66667