File: packages/dopes/dopes-2025.1.0.tar.gz/dopes-2025.1.0/examples/data_analysis/raman_silicon/data/514nm_1%_15s/W3L150_17_top.txt
692.206	6.33333
690.885	5.66667
689.564	5.33333
688.241	7
686.917	6
685.596	5.66667
684.272	5.66667
682.948	5.66667
681.624	2.33333
680.299	6
678.975	6.33333
677.65	5.33333
676.323	7
674.998	8.66667
673.67	5.33333
672.344	6
671.017	6.33333
669.689	5.66667
668.362	4.66667
667.034	5.66667
665.705	8.33333
664.376	5.33333
663.045	6
661.716	6.33333
660.387	6
659.055	7
657.725	8
656.393	8
655.063	4.66667
653.73	5
652.398	6
651.065	6.33333
649.732	4.66667
648.399	7
647.065	5
645.729	6
644.396	8.66667
643.062	5.66667
641.725	7
640.389	4.33333
639.054	5.66667
637.717	3.66667
636.38	7.33333
635.043	5.33333
633.705	7
632.368	7.66667
631.03	4.66667
629.689	6.33333
628.351	5
627.011	5.66667
625.672	4.66667
624.331	7.66667
622.99	8
621.651	2.66667
620.309	7.33333
618.967	5.66667
617.625	7.66667
616.281	8.33333
614.939	4.66667
613.596	9.33333
612.251	11.3333
610.908	7.33333
609.563	4.66667
608.22	5.66667
606.874	4.66667
605.528	8.33333
604.182	5.66667
602.836	7
601.49	6
600.143	7
598.794	8.33333
597.447	6.33333
596.1	4.33333
594.75	3.33333
593.403	6.33333
592.053	5.66667
590.703	5.66667
589.353	5
588.002	5
586.651	5.33333
585.3	6
583.949	5.66667
582.598	5.33333
581.244	5.66667
579.893	4.66667
578.539	6.33333
577.187	6
575.832	6.66667
574.478	5.33333
573.123	5.33333
571.768	7.66667
570.413	6
569.057	4
567.702	4.66667
566.346	7.66667
564.988	4.33333
563.632	6.33333
562.273	5.66667
560.916	6
559.558	9.33333
558.198	10
556.839	10.6667
555.48	6
554.12	9.33333
552.76	6.66667
551.4	10.3333
550.039	9.33333
548.677	9
547.316	12
545.953	13.6667
544.592	9.33333
543.229	12.6667
541.865	14
540.501	14.6667
539.137	16.3333
537.773	16.6667
536.408	15
535.044	21.6667
533.679	27
532.312	26.3333
530.946	29.3333
529.579	40.3333
528.213	49.3333
526.845	66.3333
525.477	88.6667
524.111	158.667
522.742	321.667
521.373	726
520.002	1086.33
518.633	958
517.263	940.333
515.894	689.667
514.522	336.667
513.152	183.667
511.779	106
510.407	66.6667
509.034	51.6667
507.663	40
506.29	32.6667
504.917	24
503.543	24.6667
502.167	20.3333
500.793	19
499.419	17
498.043	15.6667
496.668	14.3333
495.291	13.6667
493.916	10.3333
492.539	10.6667
491.161	13.3333
489.783	13
488.405	13.3333
487.027	8
485.649	11.6667
484.268	8
482.889	8.66667
481.51	5
480.129	9.33333
478.75	7.66667
477.368	12.6667
475.986	8.33333
474.604	7.66667
473.221	7.66667
471.839	7
470.456	8
469.073	3.33333
467.69	6.66667
466.307	7
464.921	6.33333
463.537	6.66667
462.151	5.33333
460.767	4.66667
459.38	8
457.993	5
456.606	5.33333
455.219	6.66667
453.832	9
452.444	7
451.056	5.66667
449.668	10.6667
448.278	6.33333
446.89	6
445.499	5.33333
444.11	8
442.719	10.3333
441.327	8.33333
439.936	8.66667
438.544	5.66667
437.152	7.33333
435.76	5
434.367	9.33333
432.975	10
431.579	6
430.186	3.66667
428.791	7.66667
427.398	9
426.002	5.33333
424.606	9
423.211	6.66667
421.815	6.66667
420.418	8
419.021	4.33333
417.624	6
416.225	5
414.827	6.66667
413.43	3.66667
412.029	7.66667
410.631	5
409.231	7.33333
407.83	6.66667
406.429	6.33333
405.03	8.66667
403.629	6
402.227	5
400.825	6
399.421	5.66667
398.019	5.66667
396.617	5.66667
395.212	4.33333
393.809	7.66667
392.404	9.33333
391	5.33333
389.595	4.66667
388.189	2.33333
386.783	5.33333
385.377	7
383.97	6.33333
382.563	8
381.157	7
379.747	4.66667
378.34	6.66667
376.932	6
375.522	6.33333
374.112	8.33333
372.704	5.66667
371.294	6.66667
369.883	5
368.472	7.66667
367.061	5.66667
365.649	8.66667
364.238	2.33333
362.826	6.33333
361.411	8.33333
359.999	9
358.585	5
357.172	5
355.757	7.66667
354.342	5.66667
352.928	9.66667
351.513	4
350.097	5.33333
348.68	10
347.264	4
345.845	10
344.429	9.66667
343.012	6.66667
341.948	5.33333