File: packages/dopes/dopes-2025.1.0.tar.gz/dopes-2025.1.0/examples/data_analysis/raman_silicon/data/514nm_1%_15s/W3L150_23_top.txt
692.206	6
690.885	4
689.564	2.66667
688.241	2.33333
686.917	2
685.596	3
684.272	4.33333
682.948	6.33333
681.624	6.66667
680.299	5
678.975	6
677.65	5
676.323	5
674.998	9
673.67	6.33333
672.344	4.66667
671.017	6.33333
669.689	5
668.362	8.66667
667.034	8
665.705	5
664.376	5
663.045	2
661.716	4
660.387	4.33333
659.055	6
657.725	7.33333
656.393	6.66667
655.063	7.33333
653.73	8
652.398	6.66667
651.065	7
649.732	4.66667
648.399	7.33333
647.065	4.66667
645.729	8.33333
644.396	7.66667
643.062	6.66667
641.725	6.66667
640.389	4
639.054	5.33333
637.717	9
636.38	5
635.043	3.33333
633.705	7
632.368	2.33333
631.03	4.33333
629.689	7
628.351	8
627.011	6.33333
625.672	5.66667
624.331	7.33333
622.99	6.66667
621.651	5
620.309	7
618.967	2.66667
617.625	8
616.281	8.33333
614.939	9.33333
613.596	4.66667
612.251	7.66667
610.908	6.66667
609.563	5.33333
608.22	8
606.874	6.66667
605.528	6.66667
604.182	6
602.836	5.33333
601.49	6
600.143	3.66667
598.794	6
597.447	8
596.1	5.33333
594.75	8
593.403	4
592.053	5.33333
590.703	6.66667
589.353	7.33333
588.002	6.33333
586.651	5
585.3	4
583.949	6
582.598	5.66667
581.244	6.66667
579.893	8
578.539	4.66667
577.187	3.66667
575.832	4.33333
574.478	7.33333
573.123	6.33333
571.768	4
570.413	5.66667
569.057	5.33333
567.702	6.33333
566.346	6.66667
564.988	7.66667
563.632	6
562.273	9.66667
560.916	4
559.558	8
558.198	6.66667
556.839	9.33333
555.48	11.3333
554.12	5.66667
552.76	8
551.4	8.33333
550.039	8
548.677	5.66667
547.316	11
545.953	9.66667
544.592	10.3333
543.229	13.3333
541.865	10
540.501	16
539.137	16.6667
537.773	14.6667
536.408	14.6667
535.044	17.6667
533.679	19
532.312	23.6667
530.946	36
529.579	37.6667
528.213	43.6667
526.845	59.6667
525.477	85.3333
524.111	132
522.742	287
521.373	635
520.002	906.667
518.633	797
517.263	640.333
515.894	767.667
514.522	639.333
513.152	363
511.779	178
510.407	99.3333
509.034	59.3333
507.663	48.3333
506.29	34
504.917	32.3333
503.543	25.3333
502.167	23
500.793	15.3333
499.419	20.3333
498.043	17
496.668	13
495.291	12
493.916	11.6667
492.539	9.66667
491.161	12.3333
489.783	9
488.405	11.3333
487.027	13
485.649	13.3333
484.268	11
482.889	6.33333
481.51	8
480.129	11.6667
478.75	8.33333
477.368	8.33333
475.986	9.33333
474.604	8.33333
473.221	5.66667
471.839	8.33333
470.456	9.33333
469.073	9.33333
467.69	7.33333
466.307	8
464.921	7
463.537	9.66667
462.151	5.33333
460.767	3.66667
459.38	5.66667
457.993	5
456.606	6
455.219	7
453.832	5.66667
452.444	5.66667
451.056	3.66667
449.668	7.66667
448.278	6.66667
446.89	9
445.499	8.66667
444.11	7
442.719	6.33333
441.327	6
439.936	6.66667
438.544	4
437.152	6.33333
435.76	7
434.367	6.33333
432.975	8.33333
431.579	7.33333
430.186	7.33333
428.791	6
427.398	8.33333
426.002	7.66667
424.606	8.66667
423.211	9
421.815	7
420.418	5.33333
419.021	7.33333
417.624	11
416.225	6.66667
414.827	5
413.43	8.33333
412.029	4.33333
410.631	5
409.231	9
407.83	9.33333
406.429	6.66667
405.03	6.33333
403.629	4
402.227	9.66667
400.825	6.33333
399.421	6.33333
398.019	6
396.617	5.66667
395.212	8.33333
393.809	8
392.404	8.33333
391	6
389.595	4.66667
388.189	5.33333
386.783	6
385.377	8.66667
383.97	7
382.563	3
381.157	3.66667
379.747	5.33333
378.34	6.66667
376.932	3.33333
375.522	5.66667
374.112	4.33333
372.704	3.33333
371.294	7.66667
369.883	6
368.472	8.66667
367.061	7.33333
365.649	10.3333
364.238	6
362.826	9.66667
361.411	7.33333
359.999	7.33333
358.585	5.33333
357.172	11.3333
355.757	8.66667
354.342	6.66667
352.928	6.66667
351.513	5.66667
350.097	7.33333
348.68	7.33333
347.264	9
345.845	6.66667
344.429	12.3333
343.012	6.33333
341.948	5.33333