File: packages/dopes/dopes-2025.1.0.tar.gz/dopes-2025.1.0/examples/data_analysis/raman_silicon/data/514nm_1%_15s/W3L150_2_bottom.txt
692.206	2
690.885	1.33333
689.564	3.33333
688.241	5
686.917	1.66667
685.596	3.33333
684.272	2
682.948	3
681.624	6.33333
680.299	5.66667
678.975	4.33333
677.65	0.333333
676.323	2.66667
674.998	3.66667
673.67	6.33333
672.344	6
671.017	3
669.689	4.66667
668.362	4
667.034	3
665.705	1
664.376	1.66667
663.045	-1
661.716	4.66667
660.387	3.66667
659.055	4
657.725	5
656.393	4.33333
655.063	3
653.73	3.66667
652.398	3.66667
651.065	4.66667
649.732	4.33333
648.399	1.66667
647.065	2
645.729	2.33333
644.396	3.66667
643.062	2
641.725	4
640.389	3.66667
639.054	4
637.717	3.33333
636.38	4.66667
635.043	4.33333
633.705	6
632.368	5
631.03	3.66667
629.689	4.66667
628.351	1.66667
627.011	2.33333
625.672	0.333333
624.331	2.33333
622.99	5.33333
621.651	5.66667
620.309	5
618.967	5
617.625	5
616.281	4.66667
614.939	2.33333
613.596	6.33333
612.251	6.33333
610.908	5
609.563	1.33333
608.22	4.66667
606.874	1
605.528	5
604.182	2.66667
602.836	1.33333
601.49	3.33333
600.143	5.66667
598.794	4.66667
597.447	2
596.1	6
594.75	3.66667
593.403	3
592.053	0
590.703	5.66667
589.353	2.66667
588.002	3.66667
586.651	4.66667
585.3	2.66667
583.949	3
582.598	4
581.244	1.33333
579.893	3.33333
578.539	3
577.187	3.33333
575.832	3.66667
574.478	2.66667
573.123	2.66667
571.768	1.33333
570.413	2.66667
569.057	3
567.702	3.33333
566.346	4
564.988	2
563.632	6.33333
562.273	5
560.916	5
559.558	3.66667
558.198	7.66667
556.839	7.66667
555.48	8
554.12	4.33333
552.76	5.66667
551.4	6.33333
550.039	5.33333
548.677	7.66667
547.316	7.66667
545.953	10.6667
544.592	9.66667
543.229	14.6667
541.865	9.66667
540.501	11.3333
539.137	15
537.773	12.6667
536.408	15
535.044	19
533.679	23.3333
532.312	28.3333
530.946	31
529.579	36.6667
528.213	54.6667
526.845	69.3333
525.477	118
524.111	202.333
522.742	431
521.373	1039
520.002	1455.33
518.633	829.333
517.263	345.667
515.894	165.333
514.522	101
513.152	67.6667
511.779	52.3333
510.407	39.3333
509.034	27.3333
507.663	21.3333
506.29	24
504.917	14.6667
503.543	16.6667
502.167	12.3333
500.793	12
499.419	9.33333
498.043	7.33333
496.668	11.6667
495.291	6.33333
493.916	7
492.539	5.66667
491.161	7
489.783	9
488.405	7.66667
487.027	6.33333
485.649	7.66667
484.268	9.33333
482.889	8.66667
481.51	5.66667
480.129	1.66667
478.75	6
477.368	5.66667
475.986	5.33333
474.604	5
473.221	6.33333
471.839	2.33333
470.456	3
469.073	1.33333
467.69	1
466.307	3
464.921	4
463.537	3
462.151	3.33333
460.767	3.33333
459.38	1.33333
457.993	7.33333
456.606	4.66667
455.219	3
453.832	3.33333
452.444	1
451.056	5.66667
449.668	2.33333
448.278	0.666667
446.89	-0.666667
445.499	4.33333
444.11	4.66667
442.719	3
441.327	5
439.936	4
438.544	8.33333
437.152	6.66667
435.76	4.33333
434.367	4
432.975	1.66667
431.579	5.33333
430.186	4
428.791	5.33333
427.398	3.66667
426.002	6.66667
424.606	3.33333
423.211	4
421.815	2.33333
420.418	6
419.021	4
417.624	6.33333
416.225	3
414.827	3
413.43	3.66667
412.029	3.33333
410.631	4.66667
409.231	3.66667
407.83	4.33333
406.429	3.33333
405.03	4.66667
403.629	4.66667
402.227	4.66667
400.825	0.666667
399.421	4
398.019	1.66667
396.617	4.33333
395.212	3.66667
393.809	5
392.404	5.66667
391	4
389.595	6
388.189	2.33333
386.783	0
385.377	4.66667
383.97	5.66667
382.563	7
381.157	5.33333
379.747	2.33333
378.34	4
376.932	4.66667
375.522	2.33333
374.112	1.66667
372.704	7
371.294	6
369.883	3
368.472	4
367.061	6.33333
365.649	5
364.238	5.66667
362.826	3.66667
361.411	4
359.999	6.66667
358.585	4.33333
357.172	3.33333
355.757	3
354.342	4.33333
352.928	5
351.513	3
350.097	6
348.68	4.33333
347.264	5
345.845	6.33333
344.429	2.33333
343.012	2.33333
341.948	5