File: packages/dopes/dopes-2025.1.0.tar.gz/dopes-2025.1.0/examples/data_analysis/raman_silicon/data/514nm_1%_15s/W3L150_4_bottom.txt
692.206	-3
690.885	-0.333333
689.564	-1
688.241	0.333333
686.917	0
685.596	-1.33333
684.272	0.333333
682.948	1.33333
681.624	-0.333333
680.299	-1.33333
678.975	0
677.65	0.333333
676.323	-0.333333
674.998	-1.33333
673.67	-1
672.344	1
671.017	1
669.689	2.66667
668.362	2.66667
667.034	-0.666667
665.705	-2.33333
664.376	0.333333
663.045	0.333333
661.716	-2.66667
660.387	0.333333
659.055	2
657.725	2
656.393	1.66667
655.063	-0.333333
653.73	2.33333
652.398	0.666667
651.065	0
649.732	1.66667
648.399	1.66667
647.065	4.66667
645.729	-0.666667
644.396	0.666667
643.062	-0.333333
641.725	-1.66667
640.389	1
639.054	2.33333
637.717	-1.33333
636.38	-0.666667
635.043	1
633.705	0.333333
632.368	1.33333
631.03	2.33333
629.689	1
628.351	-1
627.011	3
625.672	2
624.331	1
622.99	4.33333
621.651	0.333333
620.309	5
618.967	1.66667
617.625	0.666667
616.281	1
614.939	2.66667
613.596	-0.666667
612.251	0
610.908	0
609.563	-0.333333
608.22	1
606.874	1.33333
605.528	0.666667
604.182	0.333333
602.836	1.66667
601.49	-0.333333
600.143	0.333333
598.794	-0.333333
597.447	-0.333333
596.1	-0.333333
594.75	2
593.403	-1.33333
592.053	-0.333333
590.703	1.66667
589.353	1.66667
588.002	1.33333
586.651	1
585.3	2
583.949	-0.666667
582.598	1.33333
581.244	-1.66667
579.893	0.333333
578.539	-1.66667
577.187	0
575.832	-2
574.478	0.333333
573.123	1.33333
571.768	-1
570.413	-0.333333
569.057	0.333333
567.702	0.666667
566.346	-1.66667
564.988	2.33333
563.632	-0.666667
562.273	1.33333
560.916	0.666667
559.558	3.33333
558.198	2.66667
556.839	3.33333
555.48	3.66667
554.12	4
552.76	4.66667
551.4	3.66667
550.039	3
548.677	6.66667
547.316	6
545.953	3.66667
544.592	5.66667
543.229	7
541.865	9
540.501	9.66667
539.137	8
537.773	13.3333
536.408	13.3333
535.044	14.3333
533.679	21.3333
532.312	24
530.946	33.3333
529.579	35.6667
528.213	58
526.845	69.3333
525.477	110.333
524.111	203.667
522.742	422.667
521.373	1002.67
520.002	1466.33
518.633	905.667
517.263	379.333
515.894	191
514.522	110.667
513.152	59.6667
511.779	49.6667
510.407	40.3333
509.034	29
507.663	27
506.29	17
504.917	14
503.543	11
502.167	12
500.793	6.33333
499.419	12
498.043	8
496.668	6.33333
495.291	8.33333
493.916	4.33333
492.539	2.33333
491.161	4.33333
489.783	1.33333
488.405	5
487.027	3.33333
485.649	6.33333
484.268	1.33333
482.889	2
481.51	2.33333
480.129	2
478.75	-0.333333
477.368	3.33333
475.986	-0.666667
474.604	3.66667
473.221	3.66667
471.839	0
470.456	-0.333333
469.073	2.66667
467.69	-0.333333
466.307	1.33333
464.921	-0.666667
463.537	2.66667
462.151	1
460.767	2.33333
459.38	-1
457.993	0.666667
456.606	3.66667
455.219	-2
453.832	1.33333
452.444	1
451.056	0
449.668	0.666667
448.278	0.666667
446.89	-1.66667
445.499	1.33333
444.11	0.333333
442.719	1
441.327	0
439.936	2.33333
438.544	3.66667
437.152	3
435.76	3.66667
434.367	0.666667
432.975	1.33333
431.579	0.666667
430.186	5.66667
428.791	1
427.398	1
426.002	0
424.606	2.33333
423.211	3.66667
421.815	2.33333
420.418	0.666667
419.021	0.333333
417.624	0
416.225	2.66667
414.827	-1.66667
413.43	0
412.029	2.66667
410.631	1
409.231	1.66667
407.83	2.33333
406.429	-0.333333
405.03	1.66667
403.629	0
402.227	0.666667
400.825	2.66667
399.421	-0.333333
398.019	2
396.617	1
395.212	1.33333
393.809	2
392.404	0.333333
391	3.66667
389.595	2.33333
388.189	1
386.783	1.33333
385.377	-1.66667
383.97	1.33333
382.563	1
381.157	-0.333333
379.747	3
378.34	3.66667
376.932	1.33333
375.522	-1.66667
374.112	3.33333
372.704	-0.666667
371.294	1.66667
369.883	1.33333
368.472	2
367.061	2.66667
365.649	0
364.238	4
362.826	1.33333
361.411	1
359.999	2.66667
358.585	1
357.172	-0.333333
355.757	2
354.342	2.66667
352.928	1.33333
351.513	3
350.097	0
348.68	3.66667
347.264	2.66667
345.845	1
344.429	4
343.012	4.66667
341.948	1