File: packages/dopes/dopes-2025.1.0.tar.gz/dopes-2025.1.0/examples/data_analysis/raman_silicon/data/514nm_1%_15s/W3L150_9_top.txt
692.206	6.66667
690.885	5
689.564	4.33333
688.241	10
686.917	7
685.596	8.66667
684.272	8.66667
682.948	10.3333
681.624	8
680.299	7.66667
678.975	6.66667
677.65	7
676.323	8.33333
674.998	10
673.67	7
672.344	8.33333
671.017	7.33333
669.689	5.33333
668.362	9.66667
667.034	6.33333
665.705	9.33333
664.376	10.6667
663.045	6
661.716	7.33333
660.387	10.3333
659.055	9.33333
657.725	8
656.393	9.33333
655.063	4
653.73	7
652.398	8
651.065	8.66667
649.732	6.66667
648.399	9.66667
647.065	13
645.729	8.66667
644.396	8.66667
643.062	6
641.725	9.33333
640.389	7.66667
639.054	6.66667
637.717	11
636.38	13.3333
635.043	10.3333
633.705	10.3333
632.368	4.33333
631.03	9.33333
629.689	12.3333
628.351	9.66667
627.011	10.6667
625.672	10.3333
624.331	6.33333
622.99	8.66667
621.651	13
620.309	10
618.967	8.66667
617.625	9.66667
616.281	10.6667
614.939	11
613.596	9
612.251	7.33333
610.908	9.33333
609.563	8.66667
608.22	5.66667
606.874	9.33333
605.528	7
604.182	8.33333
602.836	7
601.49	5.33333
600.143	4.33333
598.794	10
597.447	8.33333
596.1	7.66667
594.75	5.33333
593.403	10
592.053	5.66667
590.703	6.33333
589.353	6
588.002	5.66667
586.651	6.66667
585.3	9
583.949	7
582.598	10
581.244	8.33333
579.893	5.33333
578.539	10.6667
577.187	9.33333
575.832	10
574.478	12
573.123	8.66667
571.768	6.33333
570.413	7
569.057	10.3333
567.702	10
566.346	8.66667
564.988	8
563.632	8.66667
562.273	10
560.916	10.3333
559.558	11.3333
558.198	10.3333
556.839	14
555.48	12.3333
554.12	14.3333
552.76	11.6667
551.4	11
550.039	12.6667
548.677	13
547.316	13.3333
545.953	13.6667
544.592	11.3333
543.229	17.3333
541.865	17.6667
540.501	23.3333
539.137	20.6667
537.773	22.3333
536.408	23.3333
535.044	24.3333
533.679	33.3333
532.312	40.3333
530.946	48.3333
529.579	60.6667
528.213	78
526.845	98.6667
525.477	147
524.111	233
522.742	482.333
521.373	1127
520.002	1846
518.633	1570.67
517.263	745.333
515.894	330.667
514.522	184
513.152	116
511.779	79.3333
510.407	68
509.034	43.6667
507.663	40.6667
506.29	34
504.917	27.6667
503.543	23.6667
502.167	22
500.793	22.3333
499.419	18.3333
498.043	18.3333
496.668	17.3333
495.291	20.3333
493.916	16
492.539	15
491.161	14
489.783	13.3333
488.405	9.66667
487.027	12.6667
485.649	11.6667
484.268	11.6667
482.889	10.3333
481.51	10
480.129	12
478.75	12.6667
477.368	10.6667
475.986	9
474.604	8
473.221	13.3333
471.839	10.6667
470.456	9.33333
469.073	10.3333
467.69	7
466.307	8
464.921	4.66667
463.537	8.33333
462.151	4
460.767	7.33333
459.38	8.33333
457.993	8
456.606	5.66667
455.219	7.66667
453.832	7
452.444	9.66667
451.056	9.66667
449.668	8.66667
448.278	8.66667
446.89	7
445.499	9
444.11	12
442.719	5
441.327	7.33333
439.936	6.66667
438.544	11
437.152	11
435.76	8
434.367	5.33333
432.975	10.3333
431.579	8
430.186	7.66667
428.791	8.33333
427.398	5.33333
426.002	11
424.606	10.6667
423.211	11.3333
421.815	12
420.418	9.66667
419.021	8.33333
417.624	9.66667
416.225	11
414.827	7.33333
413.43	8.66667
412.029	7.66667
410.631	8
409.231	10
407.83	11.6667
406.429	10
405.03	11
403.629	7.33333
402.227	5
400.825	10.3333
399.421	6.33333
398.019	7.33333
396.617	6.33333
395.212	6.66667
393.809	10.6667
392.404	8
391	9.33333
389.595	8.33333
388.189	11
386.783	7.33333
385.377	9.66667
383.97	10.3333
382.563	6.66667
381.157	8.33333
379.747	6.66667
378.34	9.33333
376.932	8
375.522	8.66667
374.112	13
372.704	11
371.294	3.33333
369.883	3.33333
368.472	10.6667
367.061	7.66667
365.649	12
364.238	12.3333
362.826	9.33333
361.411	8.66667
359.999	13
358.585	10
357.172	11.6667
355.757	6.33333
354.342	5.66667
352.928	8.66667
351.513	10.6667
350.097	11.3333
348.68	11.3333
347.264	9.33333
345.845	8.66667
344.429	6.33333
343.012	11.6667
341.948	8.33333