File: packages/dopes/dopes-2025.1.0.tar.gz/dopes-2025.1.0/examples/data_analysis/raman_silicon/data/514nm_1%_15s/W3L150_12_bottom.txt
692.206	-2
690.885	2.33333
689.564	2
688.241	2.33333
686.917	0.333333
685.596	2.33333
684.272	0.666667
682.948	0.666667
681.624	-0.666667
680.299	6
678.975	3.33333
677.65	0.666667
676.323	2.66667
674.998	3.33333
673.67	5
672.344	1.33333
671.017	1.33333
669.689	2.66667
668.362	3
667.034	5
665.705	2.66667
664.376	1.66667
663.045	2
661.716	2.33333
660.387	2
659.055	1
657.725	4
656.393	4.33333
655.063	5
653.73	4.66667
652.398	2
651.065	3.66667
649.732	3
648.399	2
647.065	0.666667
645.729	1
644.396	1.66667
643.062	0.333333
641.725	1
640.389	1.66667
639.054	2.66667
637.717	4
636.38	2
635.043	2
633.705	1
632.368	-2.33333
631.03	2.33333
629.689	2.33333
628.351	5.33333
627.011	4.33333
625.672	0.666667
624.331	3
622.99	4.33333
621.651	3
620.309	5.33333
618.967	5.33333
617.625	3
616.281	2.33333
614.939	3
613.596	4.66667
612.251	4
610.908	3.33333
609.563	5.33333
608.22	4.66667
606.874	4
605.528	2
604.182	0
602.836	4.33333
601.49	3
600.143	4
598.794	1.33333
597.447	2
596.1	1.66667
594.75	2
593.403	1.33333
592.053	4.33333
590.703	-0.666667
589.353	2.66667
588.002	1.33333
586.651	0.333333
585.3	1.66667
583.949	1.66667
582.598	3.33333
581.244	1
579.893	0.333333
578.539	3.66667
577.187	-0.666667
575.832	0
574.478	2.66667
573.123	2.33333
571.768	5
570.413	-0.333333
569.057	1
567.702	5.33333
566.346	0.333333
564.988	4
563.632	3.66667
562.273	3.33333
560.916	4.33333
559.558	3.33333
558.198	5.33333
556.839	4.66667
555.48	5.66667
554.12	5
552.76	5
551.4	3.66667
550.039	5
548.677	5.66667
547.316	7.33333
545.953	7
544.592	9
543.229	9.66667
541.865	12.6667
540.501	12.6667
539.137	14.6667
537.773	15.3333
536.408	18
535.044	22
533.679	18
532.312	29.3333
530.946	31.3333
529.579	39
528.213	50.3333
526.845	78.6667
525.477	118.333
524.111	184
522.742	410.667
521.373	1033.67
520.002	1356.33
518.633	1059.67
517.263	652.667
515.894	291.667
514.522	154
513.152	82
511.779	64
510.407	41.6667
509.034	30.3333
507.663	25.3333
506.29	19.3333
504.917	19.3333
503.543	15.3333
502.167	8
500.793	11.3333
499.419	5.33333
498.043	7
496.668	8.33333
495.291	6.33333
493.916	8.33333
492.539	5
491.161	3.33333
489.783	6.33333
488.405	5
487.027	7.66667
485.649	5.33333
484.268	5
482.889	5
481.51	4.66667
480.129	5.33333
478.75	3
477.368	6
475.986	1.66667
474.604	3.66667
473.221	2.66667
471.839	5
470.456	3
469.073	1
467.69	1.33333
466.307	5
464.921	1.33333
463.537	3.33333
462.151	2.66667
460.767	4
459.38	2.66667
457.993	1
456.606	3.66667
455.219	1.66667
453.832	0.666667
452.444	3
451.056	3
449.668	3.33333
448.278	3.33333
446.89	1.33333
445.499	3.66667
444.11	1.33333
442.719	3.33333
441.327	4
439.936	0.666667
438.544	4.33333
437.152	3.66667
435.76	4
434.367	3
432.975	2.33333
431.579	4.33333
430.186	2.66667
428.791	3
427.398	4.33333
426.002	6
424.606	3.33333
423.211	2.66667
421.815	4.33333
420.418	2.66667
419.021	4.66667
417.624	3
416.225	4.66667
414.827	0.666667
413.43	2.66667
412.029	4.33333
410.631	6.33333
409.231	3.33333
407.83	4.66667
406.429	6.66667
405.03	1.33333
403.629	1.66667
402.227	4.66667
400.825	3.66667
399.421	4.33333
398.019	2.66667
396.617	4.33333
395.212	3.33333
393.809	3.66667
392.404	4.33333
391	0.666667
389.595	3.33333
388.189	5.66667
386.783	4.33333
385.377	2
383.97	3.33333
382.563	3.33333
381.157	3.33333
379.747	4
378.34	2.66667
376.932	3
375.522	1.33333
374.112	2.33333
372.704	3.66667
371.294	7
369.883	3.66667
368.472	5
367.061	5.66667
365.649	6.66667
364.238	6
362.826	7.66667
361.411	3
359.999	5
358.585	3.66667
357.172	4.33333
355.757	4.66667
354.342	3.66667
352.928	5
351.513	4.33333
350.097	5
348.68	4.66667
347.264	7.66667
345.845	1.66667
344.429	5.66667
343.012	5.33333
341.948	1.33333