File: packages/dopes/dopes-2025.1.0.tar.gz/dopes-2025.1.0/examples/data_analysis/raman_silicon/data/514nm_1%_15s/W3L150_7_top.txt
692.206	4.33333
690.885	4.66667
689.564	5.66667
688.241	4.66667
686.917	6
685.596	3
684.272	7.33333
682.948	5.33333
681.624	6.66667
680.299	7.66667
678.975	6
677.65	3.66667
676.323	7.33333
674.998	3.33333
673.67	9.33333
672.344	3.33333
671.017	5
669.689	5.66667
668.362	2.66667
667.034	4.66667
665.705	5
664.376	7.66667
663.045	8.66667
661.716	7.33333
660.387	4.33333
659.055	5.66667
657.725	5.33333
656.393	9.33333
655.063	5.33333
653.73	3.66667
652.398	6.66667
651.065	3.66667
649.732	3
648.399	8
647.065	5.33333
645.729	7.33333
644.396	6
643.062	7.33333
641.725	7
640.389	6.66667
639.054	5
637.717	5.33333
636.38	7.66667
635.043	5.66667
633.705	5.33333
632.368	7
631.03	7.66667
629.689	3
628.351	6.66667
627.011	5.33333
625.672	7.33333
624.331	3
622.99	7.33333
621.651	6
620.309	8
618.967	8.66667
617.625	4.33333
616.281	12.3333
614.939	6
613.596	8.66667
612.251	6.66667
610.908	9.33333
609.563	5.33333
608.22	3.66667
606.874	7
605.528	4
604.182	4.66667
602.836	5.33333
601.49	6.66667
600.143	3
598.794	3.66667
597.447	3.66667
596.1	4
594.75	6.66667
593.403	6.66667
592.053	5
590.703	5.33333
589.353	5.66667
588.002	5.66667
586.651	5.66667
585.3	3.66667
583.949	5
582.598	3.33333
581.244	5.66667
579.893	2.66667
578.539	5.33333
577.187	5
575.832	4.66667
574.478	6
573.123	4.33333
571.768	5
570.413	4.33333
569.057	6.66667
567.702	6.33333
566.346	5.66667
564.988	5.66667
563.632	6.66667
562.273	8
560.916	3.66667
559.558	6
558.198	5
556.839	9.33333
555.48	7.33333
554.12	9
552.76	8
551.4	7.66667
550.039	9.33333
548.677	9.33333
547.316	9.33333
545.953	11.6667
544.592	12.3333
543.229	17
541.865	13.6667
540.501	10
539.137	16.3333
537.773	15
536.408	15.6667
535.044	15.6667
533.679	22
532.312	31.3333
530.946	40.3333
529.579	46.3333
528.213	60
526.845	69.6667
525.477	122.667
524.111	199.333
522.742	428.667
521.373	990.333
520.002	1555.67
518.633	1074.67
517.263	483.333
515.894	233.667
514.522	126.333
513.152	80.6667
511.779	60.6667
510.407	48
509.034	31
507.663	25.3333
506.29	21.6667
504.917	19.3333
503.543	17.3333
502.167	17.6667
500.793	18.6667
499.419	13.3333
498.043	14.6667
496.668	12
495.291	10.3333
493.916	8.33333
492.539	16
491.161	9
489.783	7.33333
488.405	11.3333
487.027	8
485.649	6.33333
484.268	9.66667
482.889	9
481.51	9
480.129	7.66667
478.75	6
477.368	6
475.986	7
474.604	9.33333
473.221	7
471.839	7.66667
470.456	6.33333
469.073	7.33333
467.69	9.33333
466.307	7
464.921	6
463.537	4.33333
462.151	8.66667
460.767	6.33333
459.38	4.66667
457.993	5.33333
456.606	4.66667
455.219	3.33333
453.832	4.33333
452.444	3.33333
451.056	5.66667
449.668	5.33333
448.278	3.33333
446.89	4.33333
445.499	7
444.11	6
442.719	3.66667
441.327	6
439.936	8.66667
438.544	3.33333
437.152	6.66667
435.76	5.33333
434.367	9
432.975	6.66667
431.579	8
430.186	3.33333
428.791	8.66667
427.398	5
426.002	6
424.606	10
423.211	4.66667
421.815	5.66667
420.418	5.33333
419.021	7
417.624	6.66667
416.225	9.33333
414.827	6
413.43	6
412.029	4
410.631	5.66667
409.231	6.33333
407.83	6
406.429	5.33333
405.03	4.33333
403.629	6.66667
402.227	6
400.825	6.66667
399.421	3.66667
398.019	5.66667
396.617	3.66667
395.212	7
393.809	4.33333
392.404	8.33333
391	5.66667
389.595	5.66667
388.189	5.33333
386.783	6
385.377	10
383.97	4.66667
382.563	8
381.157	7
379.747	5
378.34	4.66667
376.932	7.66667
375.522	7
374.112	2.33333
372.704	7
371.294	4
369.883	5
368.472	6.66667
367.061	6.66667
365.649	7.33333
364.238	6.33333
362.826	6
361.411	7.66667
359.999	10.3333
358.585	1.33333
357.172	5
355.757	7.66667
354.342	8.33333
352.928	8.33333
351.513	6
350.097	6.33333
348.68	2
347.264	7.33333
345.845	8.33333
344.429	7.66667
343.012	6
341.948	7