File: packages/dopes/dopes-2025.1.0.tar.gz/dopes-2025.1.0/examples/data_analysis/raman_silicon/data/514nm_1%_15s/W3L150_18_bottom.txt
692.206	2.66667
690.885	0.666667
689.564	2
688.241	3.33333
686.917	4
685.596	2.33333
684.272	4.66667
682.948	2.33333
681.624	-0.333333
680.299	4
678.975	4.33333
677.65	2.33333
676.323	3.33333
674.998	4
673.67	3.66667
672.344	3.33333
671.017	3
669.689	3.66667
668.362	5.33333
667.034	4.33333
665.705	6.66667
664.376	3.66667
663.045	-0.333333
661.716	4
660.387	2
659.055	4.66667
657.725	3.66667
656.393	4
655.063	4.33333
653.73	1.33333
652.398	2
651.065	2.33333
649.732	3.33333
648.399	3.33333
647.065	4
645.729	4
644.396	4
643.062	4.33333
641.725	2.33333
640.389	4.66667
639.054	6.66667
637.717	2.33333
636.38	4.66667
635.043	3.66667
633.705	1
632.368	5.33333
631.03	2.66667
629.689	5
628.351	6.33333
627.011	4.66667
625.672	7.33333
624.331	4
622.99	4.33333
621.651	3.66667
620.309	7.33333
618.967	4.33333
617.625	5.33333
616.281	6.66667
614.939	6.33333
613.596	2.66667
612.251	5.33333
610.908	2.33333
609.563	5.33333
608.22	3.66667
606.874	1
605.528	2
604.182	6.66667
602.836	4
601.49	2.66667
600.143	5.33333
598.794	2.66667
597.447	5
596.1	6
594.75	3.33333
593.403	6.33333
592.053	1
590.703	1.66667
589.353	1.33333
588.002	4
586.651	2
585.3	1.66667
583.949	3.66667
582.598	4.33333
581.244	2.66667
579.893	3.33333
578.539	3.33333
577.187	1.66667
575.832	1
574.478	2.33333
573.123	3.66667
571.768	5.33333
570.413	1.33333
569.057	4
567.702	3
566.346	3.33333
564.988	3.66667
563.632	0.666667
562.273	4.66667
560.916	6.66667
559.558	4.33333
558.198	4
556.839	4
555.48	5.33333
554.12	7.66667
552.76	7
551.4	8
550.039	8.33333
548.677	5.33333
547.316	10.6667
545.953	9.66667
544.592	10.3333
543.229	12.6667
541.865	12.3333
540.501	14.3333
539.137	11
537.773	15
536.408	17.3333
535.044	19.3333
533.679	23.3333
532.312	29.6667
530.946	35
529.579	43
528.213	49
526.845	69.3333
525.477	101
524.111	182
522.742	350.333
521.373	793.333
520.002	1176
518.633	1105.33
517.263	1001.33
515.894	792.667
514.522	414.667
513.152	198.667
511.779	117.667
510.407	72.6667
509.034	61.3333
507.663	48
506.29	29.3333
504.917	29.6667
503.543	16.3333
502.167	18.3333
500.793	15.3333
499.419	15
498.043	14.3333
496.668	14
495.291	6.66667
493.916	7.66667
492.539	10.3333
491.161	9.33333
489.783	6
488.405	8
487.027	8.66667
485.649	8.66667
484.268	10
482.889	5.66667
481.51	8.66667
480.129	5.66667
478.75	6
477.368	6
475.986	5.33333
474.604	6
473.221	4
471.839	8.33333
470.456	7.33333
469.073	5.33333
467.69	4.66667
466.307	4.33333
464.921	5.33333
463.537	3.33333
462.151	3.33333
460.767	2
459.38	4
457.993	2.33333
456.606	2
455.219	3.66667
453.832	5
452.444	4.33333
451.056	5
449.668	5.33333
448.278	1.66667
446.89	1.33333
445.499	4.66667
444.11	2.33333
442.719	2.66667
441.327	6.66667
439.936	5.33333
438.544	5.66667
437.152	7.66667
435.76	5.33333
434.367	5
432.975	3.66667
431.579	7
430.186	6
428.791	4.66667
427.398	3.33333
426.002	6
424.606	4
423.211	5.66667
421.815	5
420.418	4.66667
419.021	7.33333
417.624	8.33333
416.225	1
414.827	6.66667
413.43	6.66667
412.029	6.33333
410.631	3.33333
409.231	4.33333
407.83	4.66667
406.429	1.66667
405.03	4.66667
403.629	2.33333
402.227	6
400.825	4.66667
399.421	5
398.019	4.33333
396.617	5.33333
395.212	2.33333
393.809	3
392.404	5
391	5
389.595	4.33333
388.189	-1.66667
386.783	3
385.377	4.66667
383.97	4
382.563	7.66667
381.157	7
379.747	5
378.34	8.33333
376.932	3.33333
375.522	5
374.112	5
372.704	5.66667
371.294	6.33333
369.883	7.66667
368.472	7.33333
367.061	4.33333
365.649	8.66667
364.238	3.66667
362.826	3
361.411	4
359.999	6.33333
358.585	7.66667
357.172	8
355.757	4.66667
354.342	5
352.928	7.66667
351.513	7.66667
350.097	9
348.68	5.66667
347.264	7
345.845	4.33333
344.429	6
343.012	7.66667
341.948	2.33333