File: packages/dopes/dopes-2025.1.0.tar.gz/dopes-2025.1.0/examples/data_analysis/raman_silicon/data/514nm_1%_15s/W3L150_5_top.txt
692.206	-1
690.885	-2.33333
689.564	-0.333333
688.241	-1
686.917	1
685.596	-3
684.272	-1.33333
682.948	1.33333
681.624	3
680.299	-1
678.975	0.333333
677.65	1
676.323	-1
674.998	3.33333
673.67	-1
672.344	1.33333
671.017	1.66667
669.689	0.666667
668.362	2
667.034	1.33333
665.705	2.33333
664.376	1.33333
663.045	0
661.716	-1
660.387	2.33333
659.055	2.66667
657.725	2
656.393	0.333333
655.063	1.66667
653.73	1
652.398	1.66667
651.065	3
649.732	0.333333
648.399	2.33333
647.065	2.66667
645.729	-1.33333
644.396	1.33333
643.062	0
641.725	0.666667
640.389	0.333333
639.054	0.333333
637.717	0.666667
636.38	-1
635.043	-1
633.705	0.666667
632.368	0
631.03	-0.333333
629.689	2
628.351	0
627.011	1.33333
625.672	0.666667
624.331	1
622.99	3
621.651	-1.33333
620.309	1.33333
618.967	2
617.625	3
616.281	2.33333
614.939	2
613.596	1.33333
612.251	4.33333
610.908	3
609.563	3
608.22	0.333333
606.874	1
605.528	0.666667
604.182	1
602.836	0
601.49	1.66667
600.143	1.33333
598.794	-4
597.447	0.333333
596.1	1
594.75	2
593.403	0.666667
592.053	2
590.703	1.33333
589.353	3
588.002	-0.333333
586.651	2.33333
585.3	-1
583.949	-0.666667
582.598	0.333333
581.244	1.66667
579.893	-1.66667
578.539	0.666667
577.187	2.33333
575.832	-1.66667
574.478	1.33333
573.123	1
571.768	-2
570.413	2.33333
569.057	-1.33333
567.702	0.333333
566.346	-0.333333
564.988	-0.333333
563.632	2.66667
562.273	2.33333
560.916	0.333333
559.558	4
558.198	3.33333
556.839	2.33333
555.48	1.33333
554.12	3.33333
552.76	3
551.4	5.33333
550.039	4.33333
548.677	6.33333
547.316	3.33333
545.953	3.33333
544.592	6.33333
543.229	8.66667
541.865	8.33333
540.501	8
539.137	8.33333
537.773	12.3333
536.408	16
535.044	15.6667
533.679	19.3333
532.312	21.6667
530.946	30.3333
529.579	36.3333
528.213	47
526.845	62
525.477	104
524.111	174
522.742	382
521.373	899.333
520.002	1383.67
518.633	864.667
517.263	356.333
515.894	175
514.522	104.333
513.152	63
511.779	46.6667
510.407	33.6667
509.034	25.6667
507.663	17.3333
506.29	18.3333
504.917	17
503.543	11.6667
502.167	9
500.793	10
499.419	6.66667
498.043	5.33333
496.668	7
495.291	5.66667
493.916	5.66667
492.539	4
491.161	5
489.783	5.33333
488.405	2.66667
487.027	6.33333
485.649	4.33333
484.268	2.66667
482.889	4.33333
481.51	2
480.129	-1.66667
478.75	3
477.368	3.66667
475.986	3
474.604	2.33333
473.221	4
471.839	1.33333
470.456	0.333333
469.073	3
467.69	0.666667
466.307	1
464.921	2.33333
463.537	1.33333
462.151	-1
460.767	0.333333
459.38	1
457.993	-1
456.606	2.33333
455.219	2
453.832	4
452.444	2
451.056	2.66667
449.668	0
448.278	2.33333
446.89	1.66667
445.499	-1.66667
444.11	0
442.719	2.66667
441.327	3
439.936	-2.66667
438.544	2.33333
437.152	-0.333333
435.76	1
434.367	1.33333
432.975	0.333333
431.579	1
430.186	1.66667
428.791	3.66667
427.398	1
426.002	1.33333
424.606	3.66667
423.211	1.33333
421.815	1.66667
420.418	2
419.021	1.66667
417.624	-3
416.225	-2
414.827	0.666667
413.43	1.33333
412.029	2.33333
410.631	2.33333
409.231	2.66667
407.83	2
406.429	1.66667
405.03	0.333333
403.629	1.33333
402.227	1.66667
400.825	1.66667
399.421	1
398.019	2.33333
396.617	2
395.212	0.333333
393.809	3.33333
392.404	-0.333333
391	2.33333
389.595	1.33333
388.189	2.66667
386.783	1
385.377	-1.66667
383.97	0.666667
382.563	1.66667
381.157	1
379.747	4.66667
378.34	2.66667
376.932	1.33333
375.522	2
374.112	2
372.704	3
371.294	2
369.883	1.66667
368.472	1.33333
367.061	2.66667
365.649	1
364.238	3.33333
362.826	0.666667
361.411	4
359.999	-0.333333
358.585	2.66667
357.172	3
355.757	0
354.342	4
352.928	3
351.513	1
350.097	3
348.68	4
347.264	1.33333
345.845	3.66667
344.429	2.33333
343.012	0.666667
341.948	1.66667