File: packages/dopes/dopes-2025.1.0.tar.gz/dopes-2025.1.0/examples/data_analysis/raman_silicon/data/514nm_1%_15s/W3L150_11_top.txt
692.206	2
690.885	3.33333
689.564	4
688.241	1.33333
686.917	5
685.596	1.33333
684.272	2
682.948	6.33333
681.624	4
680.299	3
678.975	5.33333
677.65	6
676.323	6.33333
674.998	2.66667
673.67	3
672.344	3
671.017	4.66667
669.689	6
668.362	3.66667
667.034	4
665.705	9.33333
664.376	7.33333
663.045	4.66667
661.716	4.66667
660.387	2
659.055	3.33333
657.725	7
656.393	4.66667
655.063	2.33333
653.73	5
652.398	5
651.065	2.33333
649.732	2.66667
648.399	5.33333
647.065	5.33333
645.729	3
644.396	4.66667
643.062	1.66667
641.725	5.33333
640.389	0.333333
639.054	2.33333
637.717	3.33333
636.38	5
635.043	3.33333
633.705	4.66667
632.368	3.66667
631.03	6
629.689	4
628.351	5
627.011	3.66667
625.672	6.33333
624.331	6
622.99	4.33333
621.651	6.66667
620.309	4
618.967	10
617.625	1
616.281	5.33333
614.939	6
613.596	3
612.251	6
610.908	4.66667
609.563	2.33333
608.22	5
606.874	1.33333
605.528	3.33333
604.182	3
602.836	1.33333
601.49	3.66667
600.143	3.66667
598.794	2
597.447	2.66667
596.1	3.66667
594.75	3.66667
593.403	3.33333
592.053	3.33333
590.703	4.33333
589.353	2.33333
588.002	1
586.651	5.66667
585.3	4
583.949	2.66667
582.598	2.66667
581.244	4.66667
579.893	4.66667
578.539	1.33333
577.187	5
575.832	5.66667
574.478	3
573.123	5.66667
571.768	3
570.413	3
569.057	7.33333
567.702	4.66667
566.346	4.33333
564.988	6.33333
563.632	4.66667
562.273	4.33333
560.916	5.33333
559.558	6.33333
558.198	5
556.839	9
555.48	6.33333
554.12	5.33333
552.76	5.66667
551.4	7.33333
550.039	7
548.677	6
547.316	7.66667
545.953	6
544.592	12.3333
543.229	6.66667
541.865	13.3333
540.501	8.66667
539.137	11
537.773	17.3333
536.408	15.3333
535.044	21.3333
533.679	20.6667
532.312	24
530.946	29.6667
529.579	35.6667
528.213	49.3333
526.845	69.6667
525.477	97
524.111	161
522.742	329.333
521.373	749.333
520.002	1159.67
518.633	1222.33
517.263	711
515.894	323.667
514.522	154.667
513.152	93.6667
511.779	66.3333
510.407	42
509.034	40
507.663	32
506.29	23.6667
504.917	20.3333
503.543	15.6667
502.167	14.6667
500.793	15.6667
499.419	14.3333
498.043	14.3333
496.668	6.33333
495.291	10
493.916	8.66667
492.539	8.33333
491.161	6.66667
489.783	9.33333
488.405	5.33333
487.027	9
485.649	5.33333
484.268	6.66667
482.889	4.66667
481.51	6.66667
480.129	4
478.75	3
477.368	4.33333
475.986	5.66667
474.604	5
473.221	6
471.839	0.333333
470.456	6.66667
469.073	6.33333
467.69	4.66667
466.307	3.66667
464.921	4
463.537	4.66667
462.151	6
460.767	3.66667
459.38	3.66667
457.993	2.66667
456.606	7
455.219	1
453.832	4.33333
452.444	6.66667
451.056	3.33333
449.668	4.66667
448.278	5.33333
446.89	4.33333
445.499	0.333333
444.11	7
442.719	-1.33333
441.327	1.66667
439.936	7.66667
438.544	5
437.152	1.66667
435.76	5
434.367	7
432.975	5.33333
431.579	5.33333
430.186	4.33333
428.791	3
427.398	3.66667
426.002	7
424.606	2.66667
423.211	4.66667
421.815	7
420.418	6.66667
419.021	2.33333
417.624	4.66667
416.225	4
414.827	3.66667
413.43	5.66667
412.029	4.66667
410.631	3
409.231	6.33333
407.83	3.33333
406.429	5.33333
405.03	2.66667
403.629	3.66667
402.227	6.66667
400.825	4
399.421	6.66667
398.019	5
396.617	7
395.212	3.33333
393.809	2.66667
392.404	4.66667
391	3
389.595	2.66667
388.189	2.66667
386.783	4.66667
385.377	2
383.97	6
382.563	6.33333
381.157	3
379.747	2.33333
378.34	5
376.932	2.33333
375.522	5
374.112	3.33333
372.704	4.66667
371.294	5
369.883	1
368.472	2.33333
367.061	4
365.649	2.33333
364.238	7
362.826	4.33333
361.411	2
359.999	7.33333
358.585	3
357.172	4.66667
355.757	4.33333
354.342	3
352.928	3.66667
351.513	4
350.097	1.33333
348.68	2.33333
347.264	6
345.845	5.66667
344.429	7.66667
343.012	5.66667
341.948	5