File: packages/dopes/dopes-2025.1.0.tar.gz/dopes-2025.1.0/examples/data_analysis/raman_silicon/data/514nm_1%_15s/W3L150_14_bottom.txt
692.206	-1.33333
690.885	0
689.564	-0.666667
688.241	0.666667
686.917	-0.333333
685.596	1.33333
684.272	1.33333
682.948	0.666667
681.624	2.33333
680.299	2.66667
678.975	-0.333333
677.65	0
676.323	4
674.998	1.66667
673.67	2.33333
672.344	3
671.017	3
669.689	3
668.362	4
667.034	3.33333
665.705	2.33333
664.376	3.33333
663.045	1.33333
661.716	3.33333
660.387	2
659.055	1.66667
657.725	2.33333
656.393	2
655.063	0
653.73	0.666667
652.398	1
651.065	2
649.732	1.33333
648.399	2.33333
647.065	-0.666667
645.729	1
644.396	1.66667
643.062	2
641.725	3
640.389	2
639.054	3
637.717	1.33333
636.38	1.66667
635.043	3
633.705	-0.666667
632.368	2.33333
631.03	2.66667
629.689	4
628.351	2.66667
627.011	1.66667
625.672	3.33333
624.331	3
622.99	0.333333
621.651	4.33333
620.309	2.33333
618.967	3
617.625	1.33333
616.281	3.66667
614.939	1
613.596	2.33333
612.251	2.33333
610.908	1
609.563	1.33333
608.22	2
606.874	-0.333333
605.528	3.33333
604.182	3
602.836	3.66667
601.49	-1.66667
600.143	1.33333
598.794	0.666667
597.447	2
596.1	0
594.75	0.666667
593.403	3.33333
592.053	1.66667
590.703	1.33333
589.353	2.33333
588.002	0.666667
586.651	1
585.3	2.66667
583.949	3.66667
582.598	2.33333
581.244	1.66667
579.893	2.33333
578.539	2
577.187	1
575.832	3
574.478	1.33333
573.123	0.333333
571.768	2
570.413	1.66667
569.057	2
567.702	1.66667
566.346	2.66667
564.988	1
563.632	4
562.273	3.33333
560.916	1.66667
559.558	3.33333
558.198	1.66667
556.839	1
555.48	3.66667
554.12	3
552.76	3
551.4	3
550.039	4
548.677	3
547.316	6.33333
545.953	6
544.592	7
543.229	3.33333
541.865	10.6667
540.501	9
539.137	14
537.773	13.3333
536.408	14.3333
535.044	17
533.679	18.6667
532.312	21.6667
530.946	26
529.579	33.6667
528.213	45.3333
526.845	57.6667
525.477	81
524.111	151
522.742	279.667
521.373	626.333
520.002	1025.67
518.633	1132.67
517.263	1029.67
515.894	583.333
514.522	257.667
513.152	139.333
511.779	77.3333
510.407	57
509.034	40.6667
507.663	33
506.29	26.6667
504.917	20
503.543	16
502.167	15.6667
500.793	14.3333
499.419	11
498.043	9.66667
496.668	6.33333
495.291	7
493.916	8.33333
492.539	5
491.161	5
489.783	7.66667
488.405	5.33333
487.027	6.66667
485.649	3.33333
484.268	5
482.889	7
481.51	4
480.129	3
478.75	3
477.368	2.66667
475.986	6
474.604	3.66667
473.221	-0.333333
471.839	3.66667
470.456	-0.333333
469.073	0.333333
467.69	2.66667
466.307	4.66667
464.921	1.66667
463.537	0.333333
462.151	0
460.767	1.66667
459.38	2.66667
457.993	-0.666667
456.606	1
455.219	1.66667
453.832	1
452.444	0
451.056	0.333333
449.668	2
448.278	5
446.89	2
445.499	0.333333
444.11	1.33333
442.719	4.33333
441.327	3.33333
439.936	3.33333
438.544	-1
437.152	3.66667
435.76	6.33333
434.367	3.66667
432.975	4.33333
431.579	4.66667
430.186	2
428.791	1.66667
427.398	3
426.002	4
424.606	3.66667
423.211	1.66667
421.815	0.666667
420.418	4.33333
419.021	3.66667
417.624	1.33333
416.225	2
414.827	0.666667
413.43	2
412.029	2.33333
410.631	1.33333
409.231	0.666667
407.83	1
406.429	4.33333
405.03	1.33333
403.629	1
402.227	2.33333
400.825	1
399.421	2
398.019	3.66667
396.617	2
395.212	1.33333
393.809	5
392.404	3
391	4.66667
389.595	2.33333
388.189	2
386.783	1.33333
385.377	2.33333
383.97	4
382.563	1.33333
381.157	1.33333
379.747	0.666667
378.34	3.66667
376.932	1.66667
375.522	1.66667
374.112	0.666667
372.704	1.66667
371.294	3.66667
369.883	4
368.472	0.333333
367.061	2
365.649	4
364.238	4.33333
362.826	1.33333
361.411	1.33333
359.999	3.33333
358.585	4
357.172	5.66667
355.757	2.33333
354.342	3.33333
352.928	4.66667
351.513	2.33333
350.097	3
348.68	0.666667
347.264	3.66667
345.845	4.66667
344.429	4
343.012	-0.333333
341.948	2