File: packages/dopes/dopes-2025.1.0.tar.gz/dopes-2025.1.0/examples/data_analysis/raman_silicon/data/514nm_1%_15s/W3L150_23_bottom.txt
692.206	4.33333
690.885	5.66667
689.564	7.66667
688.241	8.33333
686.917	8
685.596	9.66667
684.272	10
682.948	5.66667
681.624	6.66667
680.299	9.33333
678.975	7
677.65	8.33333
676.323	8
674.998	11.3333
673.67	12.6667
672.344	9
671.017	7.33333
669.689	7.66667
668.362	9.66667
667.034	5
665.705	10.6667
664.376	11.6667
663.045	9.33333
661.716	7.33333
660.387	10.3333
659.055	7
657.725	8
656.393	11
655.063	7
653.73	9.33333
652.398	11.3333
651.065	8.66667
649.732	10
648.399	6.33333
647.065	7
645.729	8
644.396	7
643.062	7.33333
641.725	8.66667
640.389	12.3333
639.054	12
637.717	9.66667
636.38	10.3333
635.043	8.33333
633.705	7.33333
632.368	8
631.03	10.6667
629.689	8.33333
628.351	10.3333
627.011	14
625.672	7.33333
624.331	10.6667
622.99	11.6667
621.651	10.3333
620.309	9
618.967	7
617.625	10.6667
616.281	8.66667
614.939	12
613.596	10
612.251	10
610.908	7.66667
609.563	9.33333
608.22	7.33333
606.874	10.6667
605.528	8
604.182	11.3333
602.836	7
601.49	7
600.143	8
598.794	11
597.447	7
596.1	11.3333
594.75	12.3333
593.403	11.3333
592.053	7
590.703	9.33333
589.353	9
588.002	8
586.651	6.66667
585.3	8.33333
583.949	7.66667
582.598	10.6667
581.244	10.6667
579.893	11.3333
578.539	8
577.187	5.33333
575.832	8.66667
574.478	6.66667
573.123	7.66667
571.768	12.3333
570.413	7.33333
569.057	9
567.702	11
566.346	9.33333
564.988	7.33333
563.632	8.33333
562.273	7.33333
560.916	10.6667
559.558	9.66667
558.198	10
556.839	11.3333
555.48	10.6667
554.12	11.6667
552.76	8.66667
551.4	11.3333
550.039	10
548.677	12
547.316	11.3333
545.953	8.66667
544.592	12
543.229	14.3333
541.865	14
540.501	16.6667
539.137	16.3333
537.773	18
536.408	19.6667
535.044	21
533.679	22.6667
532.312	28.3333
530.946	28.3333
529.579	33.6667
528.213	40
526.845	57.3333
525.477	79
524.111	125.333
522.742	245.333
521.373	515
520.002	816.333
518.633	710.333
517.263	607
515.894	716.333
514.522	577.667
513.152	327.333
511.779	168.667
510.407	89.3333
509.034	61.3333
507.663	44.3333
506.29	32.3333
504.917	30.6667
503.543	29
502.167	22.6667
500.793	21
499.419	19.6667
498.043	20.3333
496.668	18
495.291	16.6667
493.916	15.3333
492.539	14.6667
491.161	14.6667
489.783	14
488.405	11.3333
487.027	11.3333
485.649	17.6667
484.268	14
482.889	8.33333
481.51	13.3333
480.129	10.3333
478.75	11.3333
477.368	10.3333
475.986	8.66667
474.604	10.3333
473.221	13.3333
471.839	9.66667
470.456	12
469.073	12.3333
467.69	7.66667
466.307	9.66667
464.921	9.33333
463.537	8
462.151	10
460.767	6.66667
459.38	7
457.993	9
456.606	7.33333
455.219	10.6667
453.832	9.33333
452.444	10
451.056	9.66667
449.668	11.3333
448.278	9.66667
446.89	9.33333
445.499	13.3333
444.11	9
442.719	8.33333
441.327	11
439.936	8.33333
438.544	10.3333
437.152	9.33333
435.76	11
434.367	11
432.975	10.3333
431.579	9.66667
430.186	12.6667
428.791	9
427.398	10
426.002	9.33333
424.606	8.33333
423.211	11.6667
421.815	11
420.418	11
419.021	10.6667
417.624	11.3333
416.225	8.66667
414.827	10.3333
413.43	6.66667
412.029	9.33333
410.631	9
409.231	9.66667
407.83	9.33333
406.429	7
405.03	10.6667
403.629	8
402.227	12.3333
400.825	8.33333
399.421	11.3333
398.019	9
396.617	9.33333
395.212	7
393.809	10.6667
392.404	9
391	10.3333
389.595	9
388.189	9.33333
386.783	10.6667
385.377	7.33333
383.97	8.33333
382.563	8.66667
381.157	9.66667
379.747	10
378.34	12
376.932	9
375.522	8.66667
374.112	11
372.704	10.6667
371.294	12.3333
369.883	11
368.472	10
367.061	6.33333
365.649	8.33333
364.238	10
362.826	12.3333
361.411	12.6667
359.999	8.66667
358.585	9.33333
357.172	7.66667
355.757	13.6667
354.342	10
352.928	9.33333
351.513	9.33333
350.097	8.33333
348.68	7
347.264	10.3333
345.845	10.3333
344.429	6.66667
343.012	12
341.948	9.33333