File: packages/dopes/dopes-2025.1.0.tar.gz/dopes-2025.1.0/examples/data_analysis/raman_silicon/data/514nm_1%_15s/W3L150_21_top.txt
692.206	0
690.885	-0.333333
689.564	2.66667
688.241	2
686.917	1.66667
685.596	3.33333
684.272	0
682.948	2
681.624	1.66667
680.299	3.66667
678.975	2
677.65	1.33333
676.323	3.33333
674.998	2.66667
673.67	2.33333
672.344	3.33333
671.017	3.33333
669.689	3.33333
668.362	1.33333
667.034	1.66667
665.705	6
664.376	4
663.045	2
661.716	1.33333
660.387	5
659.055	4.33333
657.725	1.66667
656.393	2
655.063	4.33333
653.73	2
652.398	2
651.065	2.66667
649.732	3
648.399	1.66667
647.065	2
645.729	3.33333
644.396	0.666667
643.062	0.666667
641.725	2.33333
640.389	2.33333
639.054	3
637.717	0.333333
636.38	6.33333
635.043	3.33333
633.705	1.66667
632.368	2.33333
631.03	1.33333
629.689	2.66667
628.351	3
627.011	4.66667
625.672	1.66667
624.331	2.66667
622.99	2.66667
621.651	4.33333
620.309	3.33333
618.967	4.66667
617.625	3.33333
616.281	5.66667
614.939	3.33333
613.596	3
612.251	5
610.908	6.33333
609.563	1.66667
608.22	4
606.874	4.66667
605.528	3
604.182	0.666667
602.836	2
601.49	1.66667
600.143	1.66667
598.794	0
597.447	2.33333
596.1	2
594.75	2.66667
593.403	2.66667
592.053	2.33333
590.703	4.33333
589.353	1.33333
588.002	1
586.651	1.66667
585.3	0.666667
583.949	3
582.598	0.333333
581.244	2.66667
579.893	3
578.539	1.33333
577.187	0
575.832	3
574.478	5
573.123	2
571.768	3.66667
570.413	4.33333
569.057	4
567.702	2
566.346	1.66667
564.988	3.33333
563.632	6.33333
562.273	2.66667
560.916	5.66667
559.558	4
558.198	3.33333
556.839	4
555.48	0.333333
554.12	6
552.76	5.66667
551.4	5.33333
550.039	4.66667
548.677	9.66667
547.316	7.33333
545.953	6.33333
544.592	7
543.229	10.3333
541.865	8
540.501	12.3333
539.137	12.3333
537.773	14.3333
536.408	16.3333
535.044	15
533.679	17
532.312	19.6667
530.946	24.6667
529.579	31.6667
528.213	39.6667
526.845	53.6667
525.477	76.6667
524.111	122
522.742	234.333
521.373	483.333
520.002	768.667
518.633	749.333
517.263	770
515.894	903
514.522	654.333
513.152	324
511.779	165.333
510.407	95.3333
509.034	58.3333
507.663	48
506.29	33.6667
504.917	28
503.543	18.3333
502.167	21
500.793	15
499.419	16
498.043	11.6667
496.668	8.33333
495.291	13
493.916	8
492.539	7.66667
491.161	8.33333
489.783	8.66667
488.405	7
487.027	6.33333
485.649	5
484.268	4.66667
482.889	3.66667
481.51	5
480.129	4.66667
478.75	6.66667
477.368	5
475.986	4.33333
474.604	4.66667
473.221	2.66667
471.839	4.33333
470.456	3.33333
469.073	2.66667
467.69	3.33333
466.307	2.33333
464.921	0.666667
463.537	2
462.151	3.66667
460.767	0.666667
459.38	0.333333
457.993	6.66667
456.606	3
455.219	3
453.832	3.33333
452.444	5.33333
451.056	3
449.668	2.33333
448.278	4
446.89	5.33333
445.499	2.33333
444.11	4.66667
442.719	4
441.327	2.66667
439.936	2.66667
438.544	5.33333
437.152	4.33333
435.76	2
434.367	3
432.975	3.33333
431.579	6
430.186	3.66667
428.791	4.66667
427.398	2.66667
426.002	5.33333
424.606	3.66667
423.211	2
421.815	2
420.418	3.66667
419.021	2
417.624	3.33333
416.225	4
414.827	6
413.43	3.33333
412.029	5.33333
410.631	3
409.231	3.33333
407.83	2.66667
406.429	3.66667
405.03	4.66667
403.629	4
402.227	5.66667
400.825	2.33333
399.421	3.66667
398.019	2.66667
396.617	3.66667
395.212	5
393.809	1.66667
392.404	0.666667
391	4
389.595	4.33333
388.189	2
386.783	3.66667
385.377	1.66667
383.97	3
382.563	3
381.157	2.66667
379.747	3
378.34	4.66667
376.932	2
375.522	3
374.112	3.33333
372.704	3.33333
371.294	3
369.883	5
368.472	4.33333
367.061	4.66667
365.649	3
364.238	5.33333
362.826	4
361.411	2.33333
359.999	1.66667
358.585	2.66667
357.172	4.66667
355.757	5.33333
354.342	3.66667
352.928	3
351.513	6
350.097	3.33333
348.68	4.33333
347.264	5.66667
345.845	0.333333
344.429	4
343.012	5.33333
341.948	8