File: packages/dopes/dopes-2025.1.0.tar.gz/dopes-2025.1.0/examples/data_analysis/raman_silicon/data/514nm_1%_15s/W3L150_11_bottom.txt
692.206	-0.333333
690.885	2.66667
689.564	2.66667
688.241	1
686.917	2.33333
685.596	1.33333
684.272	1.66667
682.948	2.66667
681.624	2.33333
680.299	1
678.975	2.33333
677.65	2
676.323	1.33333
674.998	2
673.67	1.33333
672.344	2
671.017	3
669.689	3.33333
668.362	6
667.034	3.33333
665.705	2.33333
664.376	3.66667
663.045	2.66667
661.716	1.33333
660.387	1.33333
659.055	2
657.725	2.66667
656.393	3.33333
655.063	4.33333
653.73	3
652.398	2.33333
651.065	2.66667
649.732	4.33333
648.399	3.66667
647.065	5
645.729	0
644.396	4
643.062	1.33333
641.725	2
640.389	-0.333333
639.054	2.66667
637.717	2
636.38	4.33333
635.043	3.66667
633.705	4
632.368	1
631.03	5.66667
629.689	-0.666667
628.351	3.66667
627.011	4.33333
625.672	5
624.331	4.66667
622.99	6
621.651	3.66667
620.309	2
618.967	6
617.625	6.33333
616.281	5.33333
614.939	3
613.596	4.33333
612.251	6.33333
610.908	4
609.563	4.66667
608.22	-0.333333
606.874	1.66667
605.528	3.33333
604.182	3
602.836	3
601.49	2.33333
600.143	0
598.794	3.66667
597.447	3.66667
596.1	2
594.75	1.33333
593.403	2
592.053	3
590.703	1
589.353	2
588.002	2.66667
586.651	2.66667
585.3	2
583.949	1.66667
582.598	4
581.244	4.66667
579.893	3
578.539	1.66667
577.187	1.66667
575.832	-1.33333
574.478	3.33333
573.123	3
571.768	5.33333
570.413	3.66667
569.057	3.66667
567.702	4
566.346	4.33333
564.988	2.66667
563.632	1.33333
562.273	1
560.916	4
559.558	4.33333
558.198	6.66667
556.839	5.33333
555.48	3.33333
554.12	4.66667
552.76	9.33333
551.4	6.33333
550.039	9.66667
548.677	6
547.316	9.33333
545.953	8
544.592	12.3333
543.229	9
541.865	15
540.501	13.3333
539.137	12
537.773	18.3333
536.408	20.3333
535.044	22.3333
533.679	27
532.312	25.6667
530.946	37.6667
529.579	38.6667
528.213	59
526.845	88
525.477	124.667
524.111	201
522.742	417.333
521.373	914.667
520.002	1443.67
518.633	1474
517.263	891.333
515.894	397.333
514.522	210.333
513.152	116.667
511.779	75.6667
510.407	52.3333
509.034	43.3333
507.663	30.6667
506.29	28
504.917	21.6667
503.543	19
502.167	16
500.793	16.3333
499.419	12.3333
498.043	12
496.668	10
495.291	8.66667
493.916	11
492.539	9
491.161	6
489.783	9
488.405	7
487.027	8.66667
485.649	4
484.268	6.66667
482.889	7
481.51	4.66667
480.129	3.66667
478.75	3.33333
477.368	6
475.986	5
474.604	1.33333
473.221	4.33333
471.839	1.33333
470.456	3.66667
469.073	5.33333
467.69	2.33333
466.307	5
464.921	5
463.537	1.66667
462.151	-0.333333
460.767	2.33333
459.38	2.66667
457.993	2.33333
456.606	3
455.219	5.33333
453.832	3
452.444	2
451.056	2.33333
449.668	7.66667
448.278	1.33333
446.89	2.33333
445.499	2
444.11	3
442.719	3.66667
441.327	4.66667
439.936	4.33333
438.544	2.66667
437.152	5.33333
435.76	5.33333
434.367	0.666667
432.975	3.33333
431.579	7
430.186	4.66667
428.791	3
427.398	3.33333
426.002	4
424.606	2.33333
423.211	-1
421.815	3.66667
420.418	6
419.021	-1
417.624	5.33333
416.225	3
414.827	3.33333
413.43	3
412.029	3.66667
410.631	4.66667
409.231	2.33333
407.83	4.66667
406.429	5.33333
405.03	5
403.629	1
402.227	5.66667
400.825	4.33333
399.421	4.33333
398.019	1
396.617	5
395.212	4.66667
393.809	1
392.404	3.33333
391	2.33333
389.595	1.66667
388.189	5.66667
386.783	3
385.377	5.33333
383.97	1.66667
382.563	3
381.157	3.66667
379.747	4.66667
378.34	3.33333
376.932	3
375.522	5
374.112	5
372.704	5.33333
371.294	3.66667
369.883	4.33333
368.472	2
367.061	3.66667
365.649	2.66667
364.238	5.33333
362.826	4
361.411	4.66667
359.999	7
358.585	5.33333
357.172	3.66667
355.757	6.66667
354.342	5.33333
352.928	5.33333
351.513	3.33333
350.097	5.66667
348.68	6.33333
347.264	3
345.845	6.66667
344.429	4.33333
343.012	4.33333
341.948	3