File: packages/dopes/dopes-2025.1.0.tar.gz/dopes-2025.1.0/examples/data_analysis/raman_silicon/data/514nm_1%_15s/W3L150_17_bottom.txt
692.206	3.66667
690.885	4.33333
689.564	3.66667
688.241	3
686.917	3.33333
685.596	3
684.272	3.33333
682.948	3
681.624	2
680.299	2.66667
678.975	1.66667
677.65	2.66667
676.323	3.66667
674.998	5
673.67	2
672.344	7.66667
671.017	5
669.689	4.33333
668.362	2.66667
667.034	5.33333
665.705	5
664.376	5
663.045	4
661.716	3.33333
660.387	2
659.055	4.66667
657.725	6
656.393	2.66667
655.063	4.66667
653.73	2.66667
652.398	2.66667
651.065	7
649.732	3
648.399	9
647.065	2.33333
645.729	4.33333
644.396	4.33333
643.062	4.66667
641.725	-0.666667
640.389	4.33333
639.054	5
637.717	8
636.38	5
635.043	4.66667
633.705	3.33333
632.368	3
631.03	5
629.689	7
628.351	6
627.011	6.66667
625.672	6.66667
624.331	5.33333
622.99	5.66667
621.651	4.66667
620.309	9.33333
618.967	7
617.625	6.66667
616.281	5.66667
614.939	6.33333
613.596	7.33333
612.251	7
610.908	7.66667
609.563	6
608.22	8
606.874	3
605.528	5.66667
604.182	4.33333
602.836	5.33333
601.49	4.33333
600.143	6.33333
598.794	4.66667
597.447	1.33333
596.1	5.66667
594.75	2
593.403	4.33333
592.053	3.66667
590.703	3.66667
589.353	3
588.002	2.66667
586.651	6.33333
585.3	3.66667
583.949	3
582.598	2.66667
581.244	1.66667
579.893	1.66667
578.539	1.66667
577.187	4
575.832	5.33333
574.478	6
573.123	4.33333
571.768	5.33333
570.413	6.66667
569.057	7.66667
567.702	7
566.346	8.66667
564.988	4.33333
563.632	3.33333
562.273	6
560.916	3
559.558	8
558.198	3.66667
556.839	7.33333
555.48	7.66667
554.12	11.3333
552.76	12.6667
551.4	8.33333
550.039	11.6667
548.677	13
547.316	10.3333
545.953	15.3333
544.592	14
543.229	13
541.865	15.6667
540.501	19
539.137	19.3333
537.773	19.6667
536.408	22.6667
535.044	26.6667
533.679	30.3333
532.312	33
530.946	44.3333
529.579	54
528.213	70
526.845	87
525.477	128.667
524.111	207
522.742	381.667
521.373	833.667
520.002	1363
518.633	1352.67
517.263	1546.67
515.894	1214
514.522	569
513.152	280.333
511.779	162
510.407	105
509.034	80.3333
507.663	59
506.29	44.3333
504.917	41.3333
503.543	31
502.167	25.3333
500.793	27
499.419	19
498.043	16.3333
496.668	17.6667
495.291	15
493.916	12.3333
492.539	10.6667
491.161	13
489.783	11
488.405	12.3333
487.027	9.66667
485.649	11.3333
484.268	13
482.889	8.66667
481.51	11.6667
480.129	10.6667
478.75	6
477.368	4
475.986	10.3333
474.604	9.66667
473.221	7.33333
471.839	8
470.456	8.66667
469.073	7.66667
467.69	6
466.307	5.33333
464.921	7.33333
463.537	2.33333
462.151	5
460.767	2.33333
459.38	3.66667
457.993	5.33333
456.606	2.33333
455.219	8.66667
453.832	3.66667
452.444	9.33333
451.056	6
449.668	6.66667
448.278	6.33333
446.89	4.33333
445.499	5.33333
444.11	6
442.719	10.3333
441.327	7.33333
439.936	7.33333
438.544	7
437.152	5.66667
435.76	8.66667
434.367	8.66667
432.975	5.66667
431.579	6
430.186	7
428.791	6
427.398	7.33333
426.002	6
424.606	5.66667
423.211	5
421.815	6.33333
420.418	4.66667
419.021	7
417.624	8
416.225	7.33333
414.827	9
413.43	5
412.029	6.66667
410.631	6.66667
409.231	6.66667
407.83	6.33333
406.429	4
405.03	4.33333
403.629	2.66667
402.227	8.66667
400.825	4.66667
399.421	4
398.019	7
396.617	11
395.212	5
393.809	7
392.404	5
391	5.33333
389.595	4
388.189	6.66667
386.783	8.33333
385.377	7.33333
383.97	9.66667
382.563	4.66667
381.157	10.3333
379.747	6.66667
378.34	6
376.932	7
375.522	6.66667
374.112	5
372.704	4.66667
371.294	9
369.883	4
368.472	9
367.061	6.33333
365.649	5
364.238	5
362.826	8
361.411	8.33333
359.999	7.66667
358.585	8
357.172	7
355.757	10.6667
354.342	6.33333
352.928	7
351.513	6.66667
350.097	7.33333
348.68	8.66667
347.264	8.66667
345.845	5.33333
344.429	4.33333
343.012	9
341.948	7.33333