File: packages/dopes/dopes-2025.1.0.tar.gz/dopes-2025.1.0/examples/data_analysis/raman_silicon/data/514nm_1%_15s/W3L150_10_top.txt
692.206	7.33333
690.885	7.66667
689.564	6.33333
688.241	5.66667
686.917	8.66667
685.596	6
684.272	5
682.948	9
681.624	7.66667
680.299	5.66667
678.975	7.33333
677.65	9
676.323	9.33333
674.998	10.6667
673.67	6
672.344	10
671.017	7.33333
669.689	6
668.362	7.33333
667.034	8
665.705	6.33333
664.376	9.66667
663.045	8.33333
661.716	11.3333
660.387	9.33333
659.055	5.66667
657.725	5
656.393	7.33333
655.063	3
653.73	6.33333
652.398	8.33333
651.065	6
649.732	5
648.399	7.66667
647.065	7.66667
645.729	7
644.396	6
643.062	9
641.725	7
640.389	7
639.054	5.33333
637.717	11.6667
636.38	7
635.043	9
633.705	7.33333
632.368	6
631.03	4.33333
629.689	9
628.351	10.3333
627.011	8.66667
625.672	6.66667
624.331	8.66667
622.99	11
621.651	9.66667
620.309	9.66667
618.967	8
617.625	7
616.281	11.6667
614.939	11
613.596	10.6667
612.251	8.66667
610.908	10.6667
609.563	8
608.22	6.33333
606.874	8
605.528	10.3333
604.182	8.33333
602.836	9.33333
601.49	9
600.143	9.33333
598.794	7
597.447	5
596.1	8
594.75	6
593.403	9.66667
592.053	7.33333
590.703	7.33333
589.353	9
588.002	10.6667
586.651	7
585.3	5
583.949	8.66667
582.598	9
581.244	7.66667
579.893	8.33333
578.539	7
577.187	10.3333
575.832	6.33333
574.478	5.66667
573.123	7
571.768	5
570.413	11.6667
569.057	7.33333
567.702	8
566.346	11
564.988	4.33333
563.632	8.66667
562.273	6.66667
560.916	6.66667
559.558	9
558.198	8
556.839	11
555.48	9.33333
554.12	12
552.76	11.6667
551.4	9
550.039	9.33333
548.677	11.3333
547.316	9.66667
545.953	13.3333
544.592	15
543.229	12.6667
541.865	13
540.501	17
539.137	13.6667
537.773	16.3333
536.408	18
535.044	25
533.679	21.3333
532.312	27.6667
530.946	34
529.579	42.3333
528.213	47.6667
526.845	69.6667
525.477	104.333
524.111	175
522.742	348.667
521.373	757.667
520.002	1282.33
518.633	1312.67
517.263	680
515.894	303.333
514.522	158.667
513.152	107.333
511.779	68
510.407	58
509.034	41.3333
507.663	34.3333
506.29	26.6667
504.917	23
503.543	24
502.167	21.3333
500.793	16.3333
499.419	18
498.043	14.3333
496.668	12.3333
495.291	13.6667
493.916	14.6667
492.539	14.6667
491.161	12.6667
489.783	12.3333
488.405	12.3333
487.027	10
485.649	14
484.268	10.6667
482.889	10.6667
481.51	8.66667
480.129	10
478.75	6.33333
477.368	10.3333
475.986	9.66667
474.604	9
473.221	6.66667
471.839	7.66667
470.456	4.66667
469.073	5
467.69	4.66667
466.307	6.33333
464.921	5
463.537	9.33333
462.151	4
460.767	7
459.38	5.33333
457.993	5.66667
456.606	11.6667
455.219	6.33333
453.832	8.33333
452.444	8
451.056	7
449.668	8.66667
448.278	6
446.89	9.33333
445.499	10
444.11	5.66667
442.719	7.33333
441.327	8.66667
439.936	9.33333
438.544	9.66667
437.152	7.33333
435.76	9.66667
434.367	7.33333
432.975	7
431.579	7
430.186	6.33333
428.791	7.33333
427.398	5.66667
426.002	7.33333
424.606	7.33333
423.211	8
421.815	8.66667
420.418	6.33333
419.021	7.66667
417.624	7.33333
416.225	8.33333
414.827	9
413.43	7.33333
412.029	8.66667
410.631	7.66667
409.231	1.33333
407.83	6.66667
406.429	8.33333
405.03	5
403.629	7.66667
402.227	9
400.825	9.33333
399.421	8.66667
398.019	8.33333
396.617	9.33333
395.212	7
393.809	6.33333
392.404	6
391	11
389.595	5.33333
388.189	6
386.783	7.33333
385.377	9
383.97	8.33333
382.563	10
381.157	8.66667
379.747	9.66667
378.34	5.66667
376.932	6
375.522	8.33333
374.112	7
372.704	8.33333
371.294	8
369.883	8.66667
368.472	8.33333
367.061	8
365.649	7.66667
364.238	7.33333
362.826	8
361.411	8
359.999	7
358.585	9.66667
357.172	5.33333
355.757	8
354.342	9.66667
352.928	9
351.513	6
350.097	5.66667
348.68	11
347.264	7
345.845	7.66667
344.429	8.33333
343.012	9.33333
341.948	7