File: packages/dopes/dopes-2025.1.0.tar.gz/dopes-2025.1.0/examples/data_analysis/raman_silicon/data/514nm_1%_15s/W3L150_8_bottom.txt
692.206	-1
690.885	5
689.564	0.333333
688.241	0.666667
686.917	3.33333
685.596	0.666667
684.272	1.66667
682.948	1.66667
681.624	-0.666667
680.299	1.66667
678.975	0.666667
677.65	-1
676.323	4.33333
674.998	0.333333
673.67	1.33333
672.344	2.66667
671.017	0
669.689	3.66667
668.362	1.66667
667.034	4.33333
665.705	2
664.376	3
663.045	1.66667
661.716	2
660.387	2.66667
659.055	2.33333
657.725	1
656.393	2.33333
655.063	1.33333
653.73	2.33333
652.398	3
651.065	3.66667
649.732	2.33333
648.399	1.33333
647.065	4.33333
645.729	1
644.396	0.333333
643.062	1.66667
641.725	1.33333
640.389	0
639.054	0
637.717	3.66667
636.38	2
635.043	2
633.705	0
632.368	2
631.03	0
629.689	2.33333
628.351	2.66667
627.011	1.66667
625.672	4.33333
624.331	2
622.99	3.33333
621.651	3.33333
620.309	3
618.967	5.33333
617.625	2.33333
616.281	5.33333
614.939	0.666667
613.596	3
612.251	1.33333
610.908	2
609.563	-0.333333
608.22	2.66667
606.874	2.66667
605.528	2.66667
604.182	2.33333
602.836	3
601.49	1.33333
600.143	2.66667
598.794	1
597.447	1
596.1	1
594.75	-0.666667
593.403	-1.66667
592.053	1.33333
590.703	2.33333
589.353	1.33333
588.002	0.666667
586.651	0.666667
585.3	2.66667
583.949	0.333333
582.598	2.33333
581.244	1.33333
579.893	0.666667
578.539	1
577.187	0.333333
575.832	1.66667
574.478	1
573.123	-1
571.768	2
570.413	1
569.057	4.66667
567.702	1.33333
566.346	2.33333
564.988	4.66667
563.632	4.33333
562.273	3
560.916	1.66667
559.558	4
558.198	3.66667
556.839	1.66667
555.48	5
554.12	1.33333
552.76	5.66667
551.4	3.66667
550.039	2.66667
548.677	6.66667
547.316	7
545.953	8.66667
544.592	11
543.229	12.3333
541.865	10.3333
540.501	11.6667
539.137	12
537.773	17
536.408	19.6667
535.044	21.6667
533.679	24.6667
532.312	31.3333
530.946	39
529.579	43.3333
528.213	60.3333
526.845	90.3333
525.477	139
524.111	241.333
522.742	483
521.373	1133.33
520.002	1703.67
518.633	1196.67
517.263	522.667
515.894	252.667
514.522	143.333
513.152	97.6667
511.779	57.6667
510.407	43.3333
509.034	35
507.663	27.3333
506.29	21.6667
504.917	16.6667
503.543	17.3333
502.167	17.3333
500.793	12.3333
499.419	12.6667
498.043	11.3333
496.668	7
495.291	7
493.916	7.66667
492.539	7.33333
491.161	10.3333
489.783	8.33333
488.405	2.66667
487.027	5
485.649	5
484.268	5.66667
482.889	5.33333
481.51	5.33333
480.129	3.33333
478.75	5.33333
477.368	2
475.986	4.66667
474.604	3.33333
473.221	4.33333
471.839	1.33333
470.456	3
469.073	0.666667
467.69	2.33333
466.307	2.66667
464.921	2.66667
463.537	2
462.151	0
460.767	1.33333
459.38	0.333333
457.993	1.33333
456.606	3.66667
455.219	0
453.832	1
452.444	2.66667
451.056	0.666667
449.668	1.66667
448.278	2.66667
446.89	4
445.499	3
444.11	1.33333
442.719	3.33333
441.327	2.33333
439.936	2.66667
438.544	6
437.152	8.66667
435.76	4.66667
434.367	6
432.975	4
431.579	4
430.186	3
428.791	3
427.398	4
426.002	1
424.606	0.666667
423.211	3
421.815	4
420.418	2
419.021	2.66667
417.624	3.66667
416.225	2.66667
414.827	2.33333
413.43	2.33333
412.029	3
410.631	-1.33333
409.231	1.33333
407.83	1
406.429	4.33333
405.03	1.33333
403.629	2
402.227	1.66667
400.825	0.666667
399.421	2.66667
398.019	4
396.617	2.33333
395.212	5.33333
393.809	3.66667
392.404	-2.66667
391	4.33333
389.595	2.33333
388.189	3.66667
386.783	4.66667
385.377	4
383.97	3
382.563	2.66667
381.157	2
379.747	4.33333
378.34	6
376.932	4
375.522	7.33333
374.112	1.66667
372.704	4.66667
371.294	4
369.883	1.33333
368.472	2
367.061	3
365.649	3
364.238	3.66667
362.826	1.33333
361.411	5.33333
359.999	8
358.585	2.66667
357.172	-1.66667
355.757	5
354.342	3.66667
352.928	4.66667
351.513	2.33333
350.097	4.33333
348.68	2.33333
347.264	5.33333
345.845	6.33333
344.429	3.33333
343.012	3
341.948	3