File: packages/dopes/dopes-2025.1.0.tar.gz/dopes-2025.1.0/examples/data_analysis/raman_silicon/data/514nm_1%_15s/W3L150_24_top.txt
692.206	3
690.885	4.33333
689.564	3.33333
688.241	4.66667
686.917	2.66667
685.596	5.33333
684.272	5
682.948	4.33333
681.624	3
680.299	4.33333
678.975	3.33333
677.65	4.33333
676.323	4.66667
674.998	5.66667
673.67	5
672.344	4
671.017	6.33333
669.689	5
668.362	5.66667
667.034	2
665.705	7
664.376	5.33333
663.045	5.33333
661.716	6
660.387	5
659.055	5.33333
657.725	6.66667
656.393	4.66667
655.063	5.33333
653.73	4.66667
652.398	4
651.065	3
649.732	4.66667
648.399	4
647.065	3.66667
645.729	4.66667
644.396	5
643.062	7.33333
641.725	6.66667
640.389	4.33333
639.054	2
637.717	4.66667
636.38	5.66667
635.043	4.66667
633.705	5.33333
632.368	6.33333
631.03	1.66667
629.689	4
628.351	5.33333
627.011	7.33333
625.672	5.33333
624.331	5.33333
622.99	2.33333
621.651	4.33333
620.309	5.66667
618.967	6.66667
617.625	4
616.281	6.33333
614.939	7.33333
613.596	6.66667
612.251	8
610.908	5.66667
609.563	4.33333
608.22	9
606.874	8
605.528	3
604.182	4.33333
602.836	4
601.49	5
600.143	3.33333
598.794	4.33333
597.447	1.66667
596.1	4.33333
594.75	2.66667
593.403	6.33333
592.053	3.33333
590.703	3.33333
589.353	4
588.002	4.66667
586.651	6.66667
585.3	4
583.949	3.33333
582.598	3.66667
581.244	3.33333
579.893	6.33333
578.539	5
577.187	2.33333
575.832	3.33333
574.478	3.66667
573.123	3.66667
571.768	4.66667
570.413	4.66667
569.057	5.66667
567.702	3.33333
566.346	3.33333
564.988	5
563.632	5.66667
562.273	5.66667
560.916	5.33333
559.558	7.33333
558.198	5
556.839	4.66667
555.48	7
554.12	5.66667
552.76	9.33333
551.4	8
550.039	7.33333
548.677	12
547.316	8.66667
545.953	9.66667
544.592	6.33333
543.229	9.33333
541.865	9.33333
540.501	15
539.137	13
537.773	15.3333
536.408	16.6667
535.044	20
533.679	23.3333
532.312	27.3333
530.946	34.6667
529.579	37.6667
528.213	42
526.845	59
525.477	96.6667
524.111	155
522.742	287.667
521.373	665.667
520.002	931.667
518.633	803.333
517.263	451.333
515.894	403.667
514.522	590.333
513.152	578.333
511.779	500.667
510.407	301.667
509.034	151.667
507.663	81.3333
506.29	49.6667
504.917	36
503.543	31.6667
502.167	25.6667
500.793	19
499.419	18
498.043	17.6667
496.668	16.3333
495.291	12.6667
493.916	12.3333
492.539	8.66667
491.161	11.6667
489.783	12
488.405	7.66667
487.027	10.3333
485.649	7
484.268	7
482.889	7.66667
481.51	7
480.129	6.33333
478.75	7.66667
477.368	6.33333
475.986	4.66667
474.604	5
473.221	5.66667
471.839	5.66667
470.456	6
469.073	6.66667
467.69	7
466.307	3
464.921	4.66667
463.537	4.33333
462.151	5.33333
460.767	4.66667
459.38	2
457.993	2.33333
456.606	4.66667
455.219	5
453.832	5.33333
452.444	6.66667
451.056	6.33333
449.668	6.33333
448.278	8.33333
446.89	5.33333
445.499	3.66667
444.11	6.33333
442.719	5
441.327	3.33333
439.936	7.66667
438.544	5.33333
437.152	7
435.76	8
434.367	4
432.975	7.33333
431.579	6
430.186	4.66667
428.791	5.33333
427.398	6
426.002	7
424.606	4.66667
423.211	5.66667
421.815	4.66667
420.418	5
419.021	8.66667
417.624	5.66667
416.225	5.66667
414.827	3.33333
413.43	6
412.029	5.66667
410.631	7.66667
409.231	7.33333
407.83	5
406.429	4.66667
405.03	4.66667
403.629	5.33333
402.227	6.33333
400.825	7
399.421	5.33333
398.019	1.33333
396.617	4.66667
395.212	5.33333
393.809	3.66667
392.404	6
391	7.33333
389.595	6.33333
388.189	5.33333
386.783	5
385.377	7
383.97	5.33333
382.563	7.33333
381.157	8
379.747	6.33333
378.34	4.66667
376.932	5
375.522	1.33333
374.112	6.66667
372.704	6.33333
371.294	6.33333
369.883	7.33333
368.472	4.33333
367.061	7
365.649	7.66667
364.238	6
362.826	5.33333
361.411	6.33333
359.999	8.33333
358.585	7
357.172	7
355.757	11
354.342	7
352.928	9.66667
351.513	8.66667
350.097	7.66667
348.68	5.66667
347.264	6.33333
345.845	6.66667
344.429	6
343.012	6.66667
341.948	7.66667