File: packages/dopes/dopes-2025.1.0.tar.gz/dopes-2025.1.0/examples/data_analysis/raman_silicon/data/514nm_1%_15s/W3L150_7_bottom.txt
692.206	1
690.885	2.66667
689.564	-0.333333
688.241	0.666667
686.917	1
685.596	0
684.272	0.666667
682.948	-1
681.624	0.666667
680.299	2.66667
678.975	3.33333
677.65	-0.333333
676.323	3.66667
674.998	1.66667
673.67	0.666667
672.344	2
671.017	0.666667
669.689	2.33333
668.362	0.666667
667.034	0.333333
665.705	1.33333
664.376	1.33333
663.045	0.333333
661.716	0.333333
660.387	1.33333
659.055	0.333333
657.725	-0.333333
656.393	3
655.063	1
653.73	3
652.398	1
651.065	4
649.732	1.33333
648.399	0.333333
647.065	4.33333
645.729	3
644.396	-1
643.062	1.66667
641.725	2
640.389	2.33333
639.054	1
637.717	1.66667
636.38	2
635.043	2.66667
633.705	2.66667
632.368	0.666667
631.03	2.66667
629.689	4.33333
628.351	2.33333
627.011	1
625.672	3.33333
624.331	2
622.99	2
621.651	4.66667
620.309	5
618.967	2.33333
617.625	1.66667
616.281	6.66667
614.939	1.66667
613.596	2.66667
612.251	1.33333
610.908	1
609.563	1.66667
608.22	3
606.874	0.333333
605.528	4.33333
604.182	2
602.836	-2
601.49	1.33333
600.143	3.66667
598.794	0.333333
597.447	1
596.1	2.33333
594.75	0.666667
593.403	3
592.053	0.333333
590.703	0.666667
589.353	2
588.002	2.33333
586.651	0.666667
585.3	2
583.949	-0.333333
582.598	-1
581.244	1.66667
579.893	0.666667
578.539	1.33333
577.187	0.666667
575.832	3
574.478	4
573.123	0
571.768	-0.333333
570.413	1.33333
569.057	5
567.702	2
566.346	3.33333
564.988	1.33333
563.632	3.33333
562.273	2.33333
560.916	0.333333
559.558	2
558.198	2.33333
556.839	6.66667
555.48	3.66667
554.12	6.33333
552.76	1.33333
551.4	5.33333
550.039	5.66667
548.677	4.66667
547.316	6
545.953	7.66667
544.592	10
543.229	9
541.865	15
540.501	10.6667
539.137	13.6667
537.773	18
536.408	18
535.044	26
533.679	24.6667
532.312	33.3333
530.946	35.3333
529.579	44.3333
528.213	67
526.845	87.6667
525.477	146
524.111	256.333
522.742	492.333
521.373	1162
520.002	1859.67
518.633	1306.33
517.263	570.667
515.894	278.667
514.522	151
513.152	102.667
511.779	74.6667
510.407	54.3333
509.034	41.3333
507.663	32.3333
506.29	22.6667
504.917	21
503.543	18.3333
502.167	17.3333
500.793	12
499.419	16.6667
498.043	10
496.668	9.66667
495.291	11.3333
493.916	8
492.539	7
491.161	7
489.783	4.66667
488.405	7.66667
487.027	7
485.649	6.33333
484.268	5
482.889	3.66667
481.51	2.66667
480.129	5
478.75	2.33333
477.368	5.33333
475.986	0.666667
474.604	4
473.221	5
471.839	6
470.456	4.66667
469.073	3.33333
467.69	4
466.307	3.33333
464.921	4
463.537	2.33333
462.151	2
460.767	1
459.38	1
457.993	-0.333333
456.606	-1
455.219	2
453.832	3.66667
452.444	1.33333
451.056	-0.666667
449.668	2.33333
448.278	0.666667
446.89	2
445.499	1.66667
444.11	3
442.719	1.33333
441.327	5
439.936	3.33333
438.544	3
437.152	4.66667
435.76	5.33333
434.367	3.66667
432.975	2.33333
431.579	4
430.186	4.33333
428.791	3.66667
427.398	5
426.002	2
424.606	-0.333333
423.211	2
421.815	3.33333
420.418	0.333333
419.021	3.33333
417.624	2.33333
416.225	2
414.827	0.333333
413.43	4
412.029	3
410.631	2
409.231	3.33333
407.83	5
406.429	4.66667
405.03	3.33333
403.629	4.66667
402.227	2.33333
400.825	4.66667
399.421	5
398.019	5.66667
396.617	3.66667
395.212	3.66667
393.809	3
392.404	2.33333
391	3.33333
389.595	2
388.189	2.33333
386.783	2
385.377	1.33333
383.97	-0.333333
382.563	3.33333
381.157	4.66667
379.747	5
378.34	2.66667
376.932	2.66667
375.522	2.66667
374.112	4.33333
372.704	4
371.294	4
369.883	3.33333
368.472	3.66667
367.061	3.33333
365.649	4
364.238	3
362.826	2.66667
361.411	4
359.999	5
358.585	4
357.172	2
355.757	4.33333
354.342	3.33333
352.928	4.33333
351.513	4.33333
350.097	7.33333
348.68	4.33333
347.264	3
345.845	2
344.429	4.33333
343.012	4.66667
341.948	1.33333