File: packages/dopes/dopes-2025.1.0.tar.gz/dopes-2025.1.0/examples/data_analysis/raman_silicon/data/514nm_1%_15s/W3L150_13_bottom.txt
692.206	3
690.885	8.33333
689.564	7.33333
688.241	6.33333
686.917	3.33333
685.596	7
684.272	7
682.948	3.33333
681.624	4
680.299	4.66667
678.975	9
677.65	4.66667
676.323	4.66667
674.998	6.33333
673.67	9
672.344	6.66667
671.017	4.33333
669.689	7.33333
668.362	10
667.034	5.66667
665.705	9
664.376	7.33333
663.045	6
661.716	7.33333
660.387	6.66667
659.055	4.33333
657.725	5.33333
656.393	5.66667
655.063	6.33333
653.73	8
652.398	6.66667
651.065	5.33333
649.732	2.33333
648.399	5
647.065	6.33333
645.729	2.33333
644.396	5
643.062	6.66667
641.725	7
640.389	4
639.054	6.33333
637.717	5
636.38	8.33333
635.043	6.66667
633.705	2.66667
632.368	7.33333
631.03	6.66667
629.689	5.66667
628.351	5
627.011	6.33333
625.672	9
624.331	3.66667
622.99	8
621.651	7.66667
620.309	10.3333
618.967	10.3333
617.625	8.33333
616.281	9
614.939	8.66667
613.596	6
612.251	9
610.908	6.33333
609.563	7.66667
608.22	7
606.874	10.3333
605.528	6.66667
604.182	7
602.836	5.33333
601.49	7
600.143	5
598.794	5.66667
597.447	4.66667
596.1	8.33333
594.75	4
593.403	8
592.053	4
590.703	1.66667
589.353	5.33333
588.002	5.33333
586.651	8.66667
585.3	4.66667
583.949	9.33333
582.598	3.33333
581.244	6.33333
579.893	4
578.539	4.66667
577.187	7
575.832	7.66667
574.478	7.66667
573.123	9.66667
571.768	6
570.413	3.66667
569.057	5.66667
567.702	6.33333
566.346	8
564.988	7
563.632	9.33333
562.273	6.66667
560.916	9.66667
559.558	8.66667
558.198	5
556.839	6.66667
555.48	7.33333
554.12	7
552.76	6
551.4	9
550.039	8
548.677	7
547.316	11.3333
545.953	5.66667
544.592	10.3333
543.229	14.3333
541.865	12
540.501	10.6667
539.137	19.3333
537.773	13
536.408	15.6667
535.044	21.3333
533.679	25
532.312	27.3333
530.946	32.6667
529.579	40.3333
528.213	48
526.845	65.3333
525.477	100
524.111	167.333
522.742	337.667
521.373	743
520.002	1141.33
518.633	1153.67
517.263	903.667
515.894	441.333
514.522	214.667
513.152	129.667
511.779	81.6667
510.407	54.3333
509.034	48.3333
507.663	35.3333
506.29	25.3333
504.917	24
503.543	19
502.167	21.3333
500.793	16.6667
499.419	16.6667
498.043	15
496.668	12.6667
495.291	12.6667
493.916	12
492.539	10.6667
491.161	13.3333
489.783	10.6667
488.405	8
487.027	11.6667
485.649	6.33333
484.268	7
482.889	6.33333
481.51	10.3333
480.129	7.33333
478.75	7.33333
477.368	5.66667
475.986	9.66667
474.604	5.66667
473.221	8.33333
471.839	9.66667
470.456	7.66667
469.073	6.66667
467.69	9
466.307	9.66667
464.921	7.66667
463.537	7.33333
462.151	5.66667
460.767	7.33333
459.38	6.33333
457.993	4.33333
456.606	7.66667
455.219	4
453.832	5.66667
452.444	3.33333
451.056	6
449.668	7
448.278	7
446.89	7.66667
445.499	6.33333
444.11	7.66667
442.719	8
441.327	5.33333
439.936	6.33333
438.544	9.33333
437.152	7
435.76	8.66667
434.367	10
432.975	8
431.579	5
430.186	7
428.791	9.33333
427.398	7
426.002	10.3333
424.606	7.66667
423.211	8.33333
421.815	6
420.418	10
419.021	8
417.624	7.66667
416.225	5.33333
414.827	6.66667
413.43	4.33333
412.029	5.33333
410.631	10.3333
409.231	5.33333
407.83	4.66667
406.429	5.33333
405.03	7.66667
403.629	8.33333
402.227	7.66667
400.825	6.66667
399.421	9.66667
398.019	11.3333
396.617	6
395.212	5.33333
393.809	7.33333
392.404	5
391	10
389.595	8
388.189	8.66667
386.783	7.66667
385.377	6.66667
383.97	10.3333
382.563	10.3333
381.157	9.33333
379.747	7.66667
378.34	8.33333
376.932	8.33333
375.522	8.66667
374.112	11
372.704	5
371.294	9
369.883	9.66667
368.472	6.66667
367.061	7.66667
365.649	9.33333
364.238	6.66667
362.826	7.66667
361.411	5.33333
359.999	7
358.585	9
357.172	9.33333
355.757	6.66667
354.342	10.3333
352.928	14.3333
351.513	9
350.097	13
348.68	6.66667
347.264	7
345.845	5.66667
344.429	8.33333
343.012	10
341.948	9.66667