File: packages/dopes/dopes-2025.1.0.tar.gz/dopes-2025.1.0/examples/data_analysis/raman_silicon/data/514nm_1%_15s/W3L150_19_top.txt
692.206	11.6667
690.885	8
689.564	6.66667
688.241	7.33333
686.917	8.33333
685.596	13.3333
684.272	11.6667
682.948	7.33333
681.624	9.33333
680.299	8.66667
678.975	13
677.65	7.33333
676.323	10.3333
674.998	10
673.67	11.3333
672.344	12.3333
671.017	11
669.689	10.6667
668.362	14
667.034	10.6667
665.705	9.66667
664.376	10
663.045	10.6667
661.716	11.3333
660.387	7.33333
659.055	14.3333
657.725	7.33333
656.393	10.3333
655.063	13
653.73	10.6667
652.398	10.3333
651.065	11.3333
649.732	10
648.399	11.3333
647.065	9.66667
645.729	10.6667
644.396	10.3333
643.062	12.6667
641.725	11.3333
640.389	10.3333
639.054	8
637.717	11.6667
636.38	13.6667
635.043	11.6667
633.705	11.6667
632.368	7.66667
631.03	12
629.689	11.3333
628.351	12
627.011	9.33333
625.672	8.66667
624.331	11
622.99	14
621.651	13.3333
620.309	12
618.967	12
617.625	12
616.281	18
614.939	10.3333
613.596	9.33333
612.251	11.3333
610.908	12.3333
609.563	10
608.22	13
606.874	13
605.528	8.66667
604.182	10
602.836	11.3333
601.49	11.3333
600.143	10.3333
598.794	10.6667
597.447	11.6667
596.1	9.33333
594.75	13
593.403	11.6667
592.053	9
590.703	10.3333
589.353	8
588.002	11
586.651	8.66667
585.3	9
583.949	8.33333
582.598	10.3333
581.244	10.6667
579.893	6.66667
578.539	10
577.187	12.6667
575.832	12.6667
574.478	10.6667
573.123	9
571.768	10.3333
570.413	12
569.057	8.33333
567.702	12.3333
566.346	13
564.988	11
563.632	14.6667
562.273	10.6667
560.916	12.6667
559.558	11.3333
558.198	10.3333
556.839	12.3333
555.48	14.6667
554.12	14
552.76	12.3333
551.4	13.3333
550.039	13.6667
548.677	15.6667
547.316	15
545.953	15.3333
544.592	13.6667
543.229	15.3333
541.865	16.3333
540.501	15
539.137	21
537.773	19.3333
536.408	22
535.044	23.3333
533.679	25.3333
532.312	29.6667
530.946	33.6667
529.579	43.6667
528.213	46.6667
526.845	59.3333
525.477	86.3333
524.111	140.667
522.742	283.667
521.373	587.667
520.002	893.667
518.633	864.333
517.263	895.333
515.894	781.667
514.522	452
513.152	231
511.779	123.333
510.407	75.6667
509.034	57.6667
507.663	49
506.29	35.6667
504.917	29.3333
503.543	25
502.167	25
500.793	19.6667
499.419	23
498.043	16
496.668	17.6667
495.291	18.3333
493.916	15
492.539	16
491.161	13.3333
489.783	15
488.405	14
487.027	11.3333
485.649	10.3333
484.268	15
482.889	11.6667
481.51	10
480.129	14
478.75	8.33333
477.368	14.6667
475.986	10
474.604	7
473.221	5.66667
471.839	6
470.456	12.3333
469.073	12.6667
467.69	11.3333
466.307	11.3333
464.921	11
463.537	12
462.151	11
460.767	10
459.38	10.3333
457.993	9.33333
456.606	7.33333
455.219	11.6667
453.832	10
452.444	8.33333
451.056	10.3333
449.668	11.3333
448.278	14
446.89	10.3333
445.499	10
444.11	11
442.719	13.3333
441.327	10.3333
439.936	11.6667
438.544	9
437.152	14.6667
435.76	9.66667
434.367	15.3333
432.975	11.6667
431.579	10
430.186	11
428.791	9.66667
427.398	14.3333
426.002	13.6667
424.606	7
423.211	10.6667
421.815	12
420.418	10.3333
419.021	9.33333
417.624	12
416.225	12
414.827	9.33333
413.43	13.3333
412.029	15.3333
410.631	13
409.231	8.66667
407.83	9.66667
406.429	13
405.03	10.3333
403.629	11.6667
402.227	8
400.825	13
399.421	10
398.019	12
396.617	8.33333
395.212	7.66667
393.809	12
392.404	10.3333
391	10.3333
389.595	8
388.189	11.6667
386.783	13
385.377	13.6667
383.97	11
382.563	9.66667
381.157	9.33333
379.747	10
378.34	15
376.932	8.66667
375.522	8
374.112	7.66667
372.704	10.3333
371.294	12
369.883	8.33333
368.472	10.6667
367.061	10.3333
365.649	11.6667
364.238	12.3333
362.826	13.6667
361.411	6
359.999	13.3333
358.585	8.33333
357.172	12
355.757	7.33333
354.342	10.6667
352.928	11.6667
351.513	11.3333
350.097	15
348.68	10
347.264	9.66667
345.845	8
344.429	10.3333
343.012	13.6667
341.948	10.6667