File: packages/dopes/dopes-2025.1.0.tar.gz/dopes-2025.1.0/examples/data_analysis/raman_silicon/data/514nm_1%_15s/W3L150_25_top.txt
692.206	30.3333
690.885	23.3333
689.564	28
688.241	27.3333
686.917	21.6667
685.596	28.6667
684.272	24
682.948	26.3333
681.624	28
680.299	28.6667
678.975	26.3333
677.65	24.6667
676.323	29.3333
674.998	26.3333
673.67	28.6667
672.344	30
671.017	31.6667
669.689	32
668.362	27.6667
667.034	34.6667
665.705	30.6667
664.376	30.6667
663.045	22
661.716	30
660.387	25.6667
659.055	30.3333
657.725	33
656.393	29.6667
655.063	30.3333
653.73	28
652.398	28.3333
651.065	25.3333
649.732	30.6667
648.399	26.3333
647.065	30.6667
645.729	28
644.396	28.3333
643.062	26
641.725	28.6667
640.389	30.6667
639.054	25.3333
637.717	29.6667
636.38	28.3333
635.043	24.3333
633.705	31.6667
632.368	28
631.03	29
629.689	29
628.351	26.3333
627.011	29
625.672	30.3333
624.331	26
622.99	27
621.651	28
620.309	29.6667
618.967	32.6667
617.625	30
616.281	31.6667
614.939	31
613.596	34.6667
612.251	31
610.908	26
609.563	26
608.22	28.3333
606.874	35.3333
605.528	32
604.182	27.3333
602.836	29
601.49	27.3333
600.143	30.6667
598.794	26
597.447	28
596.1	28.3333
594.75	27.6667
593.403	24.3333
592.053	31.6667
590.703	25.6667
589.353	24.6667
588.002	27
586.651	25
585.3	25
583.949	27.3333
582.598	29.3333
581.244	27
579.893	32.6667
578.539	30.6667
577.187	28.6667
575.832	24.6667
574.478	28
573.123	30.3333
571.768	28.3333
570.413	26.3333
569.057	25.6667
567.702	30
566.346	28
564.988	27.3333
563.632	25
562.273	30.3333
560.916	28.6667
559.558	25
558.198	29.6667
556.839	26.6667
555.48	33.3333
554.12	31
552.76	32.3333
551.4	32.3333
550.039	29
548.677	31.6667
547.316	32
545.953	33
544.592	31.3333
543.229	35.3333
541.865	34.3333
540.501	43.6667
539.137	36
537.773	34.6667
536.408	41.3333
535.044	36
533.679	48.6667
532.312	45
530.946	63.3333
529.579	59
528.213	76.6667
526.845	90.6667
525.477	137.667
524.111	197.333
522.742	386.667
521.373	848.333
520.002	1150.67
518.633	857.333
517.263	556
515.894	638.667
514.522	611
513.152	432
511.779	238
510.407	139.333
509.034	87.6667
507.663	69.3333
506.29	59.3333
504.917	47.6667
503.543	52
502.167	50
500.793	46
499.419	35.3333
498.043	39
496.668	38.3333
495.291	34.3333
493.916	33.6667
492.539	35.6667
491.161	36
489.783	32
488.405	34.6667
487.027	31.3333
485.649	25.3333
484.268	31.3333
482.889	31.6667
481.51	29.6667
480.129	33
478.75	34.6667
477.368	25.3333
475.986	25.3333
474.604	29
473.221	34
471.839	28.3333
470.456	27.6667
469.073	28.6667
467.69	23.6667
466.307	23
464.921	24.3333
463.537	24.6667
462.151	27.3333
460.767	25.6667
459.38	25.6667
457.993	24.3333
456.606	27.3333
455.219	25.6667
453.832	22.6667
452.444	28.6667
451.056	24
449.668	27.6667
448.278	28
446.89	23.6667
445.499	26.6667
444.11	29.3333
442.719	30
441.327	21.6667
439.936	25.3333
438.544	26.6667
437.152	28.3333
435.76	28.6667
434.367	30.6667
432.975	33.3333
431.579	27.6667
430.186	22
428.791	28.6667
427.398	27.3333
426.002	24.3333
424.606	29
423.211	27
421.815	31
420.418	27.6667
419.021	28.6667
417.624	27
416.225	30
414.827	30.3333
413.43	26
412.029	31.3333
410.631	29.3333
409.231	27
407.83	27.3333
406.429	30
405.03	30.6667
403.629	31.6667
402.227	23.3333
400.825	29
399.421	29.3333
398.019	31.6667
396.617	29.3333
395.212	26.6667
393.809	30
392.404	29
391	24.3333
389.595	27.3333
388.189	26
386.783	32.3333
385.377	28
383.97	27
382.563	31
381.157	28.3333
379.747	23.6667
378.34	30
376.932	25.6667
375.522	30.3333
374.112	30
372.704	30.6667
371.294	27
369.883	25.6667
368.472	26
367.061	25.6667
365.649	26.6667
364.238	31.6667
362.826	26.3333
361.411	28.6667
359.999	31.3333
358.585	29.6667
357.172	23.3333
355.757	25
354.342	26
352.928	25
351.513	27.6667
350.097	25.3333
348.68	28
347.264	28
345.845	26.3333
344.429	26.3333
343.012	27
341.948	26.6667