File: packages/dopes/dopes-2025.1.0.tar.gz/dopes-2025.1.0/examples/data_analysis/raman_silicon/data/514nm_1%_15s/W3L150_13_top.txt
692.206	1.66667
690.885	0
689.564	3.33333
688.241	0.333333
686.917	1
685.596	2
684.272	1
682.948	3
681.624	1
680.299	2
678.975	-3
677.65	1.66667
676.323	0.666667
674.998	3.66667
673.67	3
672.344	0
671.017	2
669.689	3
668.362	2.66667
667.034	2.66667
665.705	1.66667
664.376	2
663.045	4.66667
661.716	1.66667
660.387	4
659.055	6
657.725	2.66667
656.393	1.33333
655.063	3.33333
653.73	4.33333
652.398	-1
651.065	0.333333
649.732	4
648.399	1.66667
647.065	1.33333
645.729	3.33333
644.396	4
643.062	5.66667
641.725	1.66667
640.389	3
639.054	-0.666667
637.717	1
636.38	1
635.043	-0.333333
633.705	0.333333
632.368	0.333333
631.03	3.33333
629.689	2.33333
628.351	1.33333
627.011	5
625.672	2
624.331	4.33333
622.99	3.33333
621.651	2.33333
620.309	3
618.967	0
617.625	5
616.281	5.33333
614.939	5.33333
613.596	3.33333
612.251	4.33333
610.908	2.33333
609.563	3.66667
608.22	2.33333
606.874	1
605.528	1.66667
604.182	1.33333
602.836	4
601.49	3
600.143	-1
598.794	2.33333
597.447	2.66667
596.1	3
594.75	4
593.403	2.33333
592.053	2.66667
590.703	-0.666667
589.353	3
588.002	2
586.651	2
585.3	1.66667
583.949	1.66667
582.598	2
581.244	2
579.893	3.66667
578.539	0.666667
577.187	1
575.832	2.33333
574.478	1.66667
573.123	1.66667
571.768	3.66667
570.413	0.666667
569.057	5.66667
567.702	3
566.346	-0.333333
564.988	2.33333
563.632	4
562.273	1.66667
560.916	1
559.558	1
558.198	3.66667
556.839	5
555.48	3
554.12	4.66667
552.76	6.33333
551.4	5
550.039	11.3333
548.677	8
547.316	5.33333
545.953	8.66667
544.592	8.33333
543.229	10.3333
541.865	13.6667
540.501	8
539.137	11.6667
537.773	12
536.408	13.3333
535.044	17.6667
533.679	21
532.312	22.3333
530.946	34.6667
529.579	37
528.213	49.6667
526.845	69
525.477	97.6667
524.111	170.667
522.742	336.333
521.373	767.333
520.002	1195.67
518.633	1290.33
517.263	996
515.894	483.667
514.522	244.667
513.152	126.333
511.779	74
510.407	58
509.034	45.6667
507.663	36
506.29	23.3333
504.917	22.6667
503.543	21
502.167	16.6667
500.793	9.33333
499.419	12
498.043	11.6667
496.668	13.3333
495.291	6.66667
493.916	10.3333
492.539	8.33333
491.161	7.66667
489.783	9
488.405	7.33333
487.027	7.66667
485.649	6.33333
484.268	3.33333
482.889	7
481.51	3
480.129	4
478.75	4
477.368	2.33333
475.986	1.33333
474.604	3.66667
473.221	3
471.839	3.66667
470.456	3.33333
469.073	4.33333
467.69	3.33333
466.307	5.66667
464.921	3
463.537	1.66667
462.151	3
460.767	3.66667
459.38	2.66667
457.993	1
456.606	2.66667
455.219	2
453.832	2.33333
452.444	1.33333
451.056	3.33333
449.668	3.33333
448.278	3.33333
446.89	1.66667
445.499	4.66667
444.11	4
442.719	1.66667
441.327	4.33333
439.936	1.33333
438.544	3
437.152	3.33333
435.76	4
434.367	6
432.975	4.33333
431.579	5.66667
430.186	5
428.791	3
427.398	5
426.002	4.66667
424.606	4.33333
423.211	2.33333
421.815	4
420.418	-1.66667
419.021	2.33333
417.624	4
416.225	3
414.827	6.33333
413.43	2
412.029	4.66667
410.631	1.66667
409.231	4
407.83	5.33333
406.429	2.33333
405.03	4
403.629	2
402.227	4
400.825	3.66667
399.421	4
398.019	4.33333
396.617	4.33333
395.212	2.66667
393.809	3.33333
392.404	3.66667
391	3
389.595	1.66667
388.189	3.33333
386.783	6.66667
385.377	5.33333
383.97	4.66667
382.563	2.33333
381.157	2.66667
379.747	4.66667
378.34	3.66667
376.932	4
375.522	2.33333
374.112	4.33333
372.704	1.66667
371.294	6.33333
369.883	1
368.472	3
367.061	1
365.649	4
364.238	3
362.826	1.33333
361.411	4.33333
359.999	4.33333
358.585	6.66667
357.172	5.66667
355.757	4.33333
354.342	4.66667
352.928	4
351.513	4
350.097	4
348.68	3.33333
347.264	5
345.845	4.66667
344.429	5.33333
343.012	4.66667
341.948	4.33333