File: packages/dopes/dopes-2025.1.0.tar.gz/dopes-2025.1.0/examples/data_analysis/raman_silicon/data/strained_silicon_6.txt
692.206	2.33333
690.885	7
689.564	5
688.241	10.3333
686.917	5.66667
685.596	7.33333
684.272	7.66667
682.948	5.33333
681.624	8.33333
680.299	7.66667
678.975	7.66667
677.65	9
676.323	7
674.998	5.33333
673.67	5
672.344	6.33333
671.017	13
669.689	7.33333
668.362	8
667.034	10.6667
665.705	8.66667
664.376	9
663.045	6
661.716	10
660.387	9.33333
659.055	9.66667
657.725	8.66667
656.393	4.33333
655.063	8
653.73	8.33333
652.398	10
651.065	9.33333
649.732	11.3333
648.399	8.66667
647.065	6.33333
645.729	7.33333
644.396	7.66667
643.062	9
641.725	6.33333
640.389	9.33333
639.054	9.66667
637.717	8
636.38	8.66667
635.043	7.33333
633.705	10.3333
632.368	7.33333
631.03	3.33333
629.689	6.33333
628.351	8.66667
627.011	5.66667
625.672	8.33333
624.331	8
622.99	10.3333
621.651	8.33333
620.309	6
618.967	10
617.625	5.33333
616.281	10.6667
614.939	7
613.596	9.33333
612.251	7.66667
610.908	7.66667
609.563	7.33333
608.22	6
606.874	8.33333
605.528	4.33333
604.182	10
602.836	11.6667
601.49	10.3333
600.143	4.33333
598.794	5.33333
597.447	8
596.1	6.33333
594.75	6
593.403	7
592.053	11
590.703	6.66667
589.353	3.33333
588.002	6
586.651	6.66667
585.3	5.66667
583.949	8
582.598	8.33333
581.244	7
579.893	9.66667
578.539	4
577.187	8.66667
575.832	5
574.478	6
573.123	7.66667
571.768	8.66667
570.413	7
569.057	9
567.702	7
566.346	7.66667
564.988	11.3333
563.632	9
562.273	9
560.916	9
559.558	8
558.198	10.3333
556.839	11.3333
555.48	9.66667
554.12	7.33333
552.76	7.33333
551.4	9.66667
550.039	13.6667
548.677	13.3333
547.316	9
545.953	13.6667
544.592	14.3333
543.229	13.3333
541.865	16.3333
540.501	14
539.137	17.3333
537.773	19
536.408	21.6667
535.044	22.3333
533.679	25.6667
532.312	27.6667
530.946	36.3333
529.579	42
528.213	46.6667
526.845	68.6667
525.477	103.667
524.111	163.333
522.742	302
521.373	682
520.002	1026
518.633	819.333
517.263	594.333
515.894	746.667
514.522	714
513.152	494
511.779	251.667
510.407	134
509.034	78
507.663	57.6667
506.29	43
504.917	34.3333
503.543	31.3333
502.167	24.3333
500.793	23
499.419	18.6667
498.043	18.3333
496.668	18.6667
495.291	14.6667
493.916	14.6667
492.539	17.6667
491.161	18
489.783	11
488.405	12.6667
487.027	12
485.649	14
484.268	12.6667
482.889	11.6667
481.51	14.6667
480.129	12.3333
478.75	7.66667
477.368	6
475.986	8
474.604	7.66667
473.221	8.66667
471.839	10.3333
470.456	5.66667
469.073	9
467.69	8.33333
466.307	9.66667
464.921	11
463.537	7.66667
462.151	12.6667
460.767	6.66667
459.38	7.66667
457.993	7.33333
456.606	5.66667
455.219	6.66667
453.832	4.66667
452.444	8
451.056	9.66667
449.668	8.33333
448.278	11.3333
446.89	6.66667
445.499	6
444.11	9.66667
442.719	10.6667
441.327	9.66667
439.936	10
438.544	5
437.152	12
435.76	11.6667
434.367	9
432.975	8
431.579	9.33333
430.186	8.33333
428.791	9.33333
427.398	7
426.002	8.66667
424.606	8.66667
423.211	8.33333
421.815	8
420.418	8
419.021	7.33333
417.624	6.66667
416.225	6.66667
414.827	9
413.43	8.33333
412.029	7.66667
410.631	8
409.231	9.33333
407.83	10.3333
406.429	6
405.03	11.3333
403.629	5.66667
402.227	8.33333
400.825	10.6667
399.421	7
398.019	6.33333
396.617	6.33333
395.212	5.66667
393.809	10.3333
392.404	6.33333
391	9.66667
389.595	8.33333
388.189	8.66667
386.783	8.66667
385.377	9.66667
383.97	9.33333
382.563	8
381.157	10
379.747	8
378.34	10
376.932	8.66667
375.522	8.66667
374.112	10.6667
372.704	8
371.294	10.6667
369.883	11.6667
368.472	12
367.061	9
365.649	8
364.238	14
362.826	11.3333
361.411	9.66667
359.999	12
358.585	8.66667
357.172	10.3333
355.757	6.66667
354.342	9
352.928	8.66667
351.513	9.33333
350.097	14
348.68	8.66667
347.264	13.6667
345.845	6.33333
344.429	9.33333
343.012	8.66667
341.948	5.66667